

 Program UNIPLOT                         version 05.36.02
 _______________
 (c) Fugro Netherlands Marine, Nootdorp, The Netherlands


 ASCII representation of data plotted on a graph.

 This ASCII file presents data interpolated to values per fixed depth interval.
 The data are corrected for the depth-offset differences between the various 
 transducers in the penetrometer.

 The records at the start of penetration may include no values or anomalous
 values where a depth offset implies incomplete penetration of a particular
 sensor into the ground.

 The records at the end of penetration may include no values for data channels
 where the transducer did not reach this depth.

 The reference level for test values is (1) the ground surface for onshore tests and (2) the seafloor for nearshore and offshore tests.

 UNICAS data file          : CPT-1008.000                            
 Output using command file : PlotASCII.cmd

 ASCII file created at : date          :08-Nov-2021
                         time          :15:11:31
 Project number                        :20024805                                                                                            
 Date of testing                       :06-Nov-2021                                                                                         
 Location                              :Hong Kong Offshore Wind Farm Project                                                                
 Test name                             :CPT-1008
 Penetrometer                          :F7.5CKE2HAW2/B/2711
 Serial no                             :1701-2711

 Table description:
 Column ID                             :Parameter name
 ___________________________________________________________________________________
 Rec                                   :Record ID, Record ID [-]
 Depth                                 :Depth, Depth [m]
 Time                                  :Time, Time [s]
 Cone                                  :Cone Resistance, Cone Resistance [MPa]
 Friction                              :Sleeve Friction, Sleeve Friction [MPa]
 Pore 2                                :Porewater Pressure, Porewater Pressure at Shoulder [MPa]
 HydroPress                            :Hydrostatic Pressure, Hydrostatic Pressure [MPa]
 qt                                    :Total Cone Resistance, Total Cone Resistance [MPa]
 Fric_ratio                            :Friction Ratio, Friction Ratio [%]
 SigmaVert                             :Vertical stress, Vertical stress [kPa] as specified in ground model
 Qnet                                  :Net Cone Resistance, Net Cone Resistance [MPa], unit weight as specified in ground model
 Bq                                    :Porewater Pressure Ratio, Porewater Pressure Ratio [-], unit weight as specified in ground model


 Data table:
  Rec    Depth      Time       Cone   Friction     Pore 2 HydroPress         qt Fric_ratio  SigmaVert       Qnet         Bq
   No        m         s        MPa        MPa        MPa        MPa        MPa          %        kPa        MPa          -
    1    0.000   1909.06     0.0000                           0.0000     0.0000                0.0000     0.0000           
    2    0.020   1910.02     0.0072                0.0007     0.0002     0.0073                0.3200     0.0070           
    3    0.040   1910.99     0.0056                0.0012     0.0004     0.0061                0.6400     0.0055     0.1417
    4    0.060   1911.99     0.0033     0.0004     0.0016     0.0006     0.0040    13.5258     0.9600     0.0030     0.3190
    5    0.080   1912.98     0.0053     0.0004     0.0017     0.0008     0.0060    12.2114     1.2800     0.0047     0.1739
    6    0.100   1913.99     0.0025     0.0003     0.0016     0.0010     0.0032    11.9901     1.6000     0.0016     0.3487
    7    0.120   1914.99     0.0045     0.0007     0.0016     0.0012     0.0052    15.5838     1.9200     0.0033     0.1607
    8    0.140   1915.95     0.0028     0.0004     0.0018     0.0014     0.0035    15.5783     2.2400     0.0013     0.2457
    9    0.160   1916.94     0.0022     0.0005     0.0019     0.0016     0.0030    12.5708     2.5600     0.0004           
   10    0.180   1926.29     0.0038     0.0006     0.0022     0.0018     0.0047    19.0294     2.8800     0.0018     0.1472
   11    0.200   1950.58     0.0041     0.0004     0.0026     0.0020     0.0051    10.7550     3.2000     0.0019     0.2344
   12    0.220   1974.58     0.0042     0.0003     0.0031     0.0022     0.0054     7.0383     3.5200     0.0019     0.2898
   13    0.240   1975.56     0.0039     0.0001     0.0034     0.0024     0.0053     4.3858     3.8400     0.0015     0.4718
   14    0.260   1976.58     0.0052     0.0002     0.0031     0.0026     0.0065     3.9881     4.1600     0.0024     0.2474
   15    0.280   1977.53     0.0042     0.0003     0.0032     0.0028     0.0056     7.1130     4.4800     0.0011     0.3900
   16    0.300   1978.53     0.0005     0.0004     0.0031     0.0030     0.0018    88.6060     4.8000    -0.0030           
   17    0.320   1979.48     0.0051     0.0004     0.0031     0.0032     0.0064     6.1400     5.1200     0.0013    -0.1850
   18    0.340   1980.49     0.0059     0.0006     0.0036     0.0034     0.0074     9.3131     5.4400     0.0019    -0.0227
   19    0.360   1981.49     0.0030     0.0007     0.0043     0.0036     0.0048    18.1689     5.7600    -0.0010    -0.3356
   20    0.380   1982.47     0.0047     0.0005     0.0046     0.0038     0.0066    11.1524     6.0800     0.0005    -0.4675
   21    0.400   1983.47     0.0074     0.0003     0.0050     0.0040     0.0094     4.7263     6.4000     0.0030     0.2598
   22    0.420   1984.42     0.0039     0.0005     0.0049     0.0042     0.0060    13.0606     6.7200    -0.0008    -1.0693
   23    0.440   1985.38     0.0061     0.0003     0.0048     0.0044     0.0081     4.6328     7.0400     0.0011     0.4228
   24    0.460   1986.37     0.0048     0.0002     0.0047     0.0046     0.0067     3.6573     7.3600    -0.0006     0.0867
   25    0.480   1987.40     0.0073     0.0006     0.0049     0.0048     0.0093     7.9864     7.6800     0.0016     0.0027
   26    0.500   1988.36     0.0081     0.0007     0.0052     0.0050     0.0103     9.1909     8.0000     0.0023     0.1172
   27    0.520   1989.33     0.0073     0.0003     0.0059     0.0052     0.0097     4.5955     8.3200     0.0013     0.4316
   28    0.540   1990.33     0.0111     0.0005     0.0062     0.0054     0.0137     4.4753     8.6400     0.0051     0.1493
   29    0.560   1991.34     0.0117     0.0004     0.0063     0.0056     0.0144     3.9033     8.9600     0.0054     0.1696
   30    0.580   1992.29     0.0104     0.0005     0.0061     0.0058     0.0130     4.9264     9.2800     0.0037     0.0869
   31    0.600   1993.29     0.0132     0.0008     0.0054     0.0060     0.0156     6.0650     9.6000     0.0060    -0.0592
   32    0.620   1994.29     0.0100     0.0009     0.0054     0.0062     0.0122    11.0943     9.9200     0.0023           
   33    0.640   1995.26     0.0178     0.0012     0.0058     0.0064     0.0201     6.2792    10.2400     0.0099    -0.0754
   34    0.660   1996.22     0.0177     0.0011     0.0057     0.0066     0.0201     6.4311    10.5600     0.0096    -0.0873
   35    0.680   1997.21     0.0201     0.0012     0.0061     0.0068     0.0227     5.7223    10.8800     0.0118    -0.0525
   36    0.700   1998.24     0.0144     0.0013     0.0053     0.0070     0.0166     8.9943    11.2000     0.0054    -0.3153
   37    0.720   1999.24     0.0151     0.0009     0.0052     0.0072     0.0173     6.1417    11.5200     0.0057    -0.3621
   38    0.740   2000.23     0.0155     0.0017     0.0066     0.0074     0.0179    10.8406    11.8400     0.0061    -0.2826
   39    0.760   2001.19     0.0163     0.0015     0.0067     0.0076     0.0191     9.5949    12.1600     0.0069    -0.1417
   40    0.780   2002.16     0.0182     0.0011     0.0072     0.0078     0.0212     6.4273    12.4800     0.0087    -0.0745
   41    0.800   2003.17     0.0216     0.0014     0.0069     0.0080     0.0243     6.7120    12.8000     0.0115    -0.1277
   42    0.820   2004.16     0.0201     0.0011     0.0086     0.0082     0.0236     5.8593    13.1200     0.0105     0.0190
   43    0.840   2005.16     0.0208     0.0017     0.0086     0.0084     0.0245     7.5060    13.4400     0.0111     0.0503
   44    0.860   2006.11     0.0227     0.0013     0.0069     0.0086     0.0259     6.2977    13.7600     0.0122    -0.0842
   45    0.880   2007.11     0.0250     0.0016     0.0071     0.0088     0.0282     6.9087    14.0800     0.0141    -0.0889
   46    0.900   2008.11     0.0188     0.0016     0.0088     0.0090     0.0223     7.9012    14.4000     0.0079    -0.0891
   47    0.920   2009.08     0.0235     0.0017     0.0100     0.0092     0.0277     7.6991    14.7200     0.0130     0.0560
   48    0.940   2010.05     0.0168     0.0015     0.0104     0.0094     0.0210     8.2277    15.0400     0.0059     0.0928
   49    0.960   2011.07     0.0187     0.0014     0.0117     0.0096     0.0235     7.4409    15.3600     0.0081     0.2306
   50    0.980   2012.05     0.0193     0.0016     0.0129     0.0098     0.0247     7.7376    15.6800     0.0090     0.3343
   51    1.000   2013.04     0.0214     0.0014     0.0126     0.0100     0.0268     6.2514    16.0000     0.0108     0.2556
   52    1.020   2013.98     0.0222     0.0016     0.0135     0.0102     0.0276     6.9042    16.3200     0.0112     0.2252
   53    1.040   2015.01     0.0263     0.0014     0.0145     0.0104     0.0324     5.4038    16.6400     0.0157     0.2540
   54    1.060   2015.97     0.0293     0.0017     0.0141     0.0106     0.0352     5.9229    16.9600     0.0182     0.1897
   55    1.080   2016.98     0.0261     0.0018     0.0132     0.0108     0.0317     6.3423    17.2800     0.0144     0.1816
   56    1.100   2017.93     0.0306     0.0020     0.0118     0.0110     0.0356     6.6695    17.6000     0.0180     0.0541
   57    1.120   2018.94     0.0293     0.0019     0.0104     0.0112     0.0339     6.7869    17.9200     0.0160    -0.0133
   58    1.140   2019.93     0.0315     0.0022     0.0104     0.0114     0.0357     7.1822    18.2400     0.0175    -0.0733
   59    1.160   2020.92     0.0288     0.0020     0.0108     0.0116     0.0333     6.9456    18.5600     0.0148    -0.0532
   60    1.180   2021.92     0.0328     0.0021     0.0121     0.0118     0.0376     6.4810    18.8800     0.0187    -0.0229
   61    1.200   2022.89     0.0300     0.0023     0.0142     0.0120     0.0358     7.6016    19.2000     0.0166     0.1048
   62    1.220   2023.89     0.0309     0.0021     0.0139     0.0122     0.0369     6.8452    19.5200     0.0173     0.1169
   63    1.240   2024.88     0.0307     0.0022     0.0142     0.0124     0.0365     6.9166    19.8400     0.0166     0.0913
   64    1.260   2025.89     0.0323     0.0022     0.0137     0.0126     0.0381     7.2608    20.1600     0.0179     0.0743
   65    1.280   2026.88     0.0323     0.0019     0.0139     0.0128     0.0381     5.9789    20.4800     0.0176     0.0516
   66    1.300   2027.85     0.0307     0.0023     0.0140     0.0130     0.0365     7.2283    20.8000     0.0157     0.0562
   67    1.320   2028.83     0.0342     0.0024     0.0156     0.0132     0.0405     7.1672    21.1200     0.0194     0.0903
   68    1.340   2029.81     0.0292     0.0020     0.0164     0.0134     0.0361     6.7591    21.4400     0.0146     0.2041
   69    1.360   2030.80     0.0298     0.0022     0.0168     0.0136     0.0368     7.4408    21.7600     0.0151     0.2100
   70    1.380   2031.83     0.0303     0.0022     0.0174     0.0138     0.0377     7.3240    22.0800     0.0156     0.2456
   71    1.400   2032.83     0.0308     0.0024     0.0173     0.0140     0.0380     7.8994    22.4000     0.0156     0.2015
   72    1.420   2033.81     0.0262     0.0020     0.0183     0.0142     0.0338     7.4130    22.7200     0.0111     0.3455
   73    1.440   2034.81     0.0280     0.0022     0.0190     0.0144     0.0359     8.3476    23.0400     0.0128     0.3477
   74    1.460   2035.79     0.0296     0.0022     0.0190     0.0146     0.0376     7.7595    23.3600     0.0142     0.3086
   75    1.480   2036.79     0.0299     0.0020     0.0203     0.0148     0.0383     6.5078    23.6800     0.0146     0.3595
   76    1.500   2037.79     0.0276     0.0025     0.0209     0.0150     0.0363     9.0218    24.0000     0.0123     0.4694
   77    1.520   2038.77     0.0314     0.0020     0.0206     0.0152     0.0401     6.2238    24.3200     0.0157     0.3444
   78    1.540   2039.77     0.0301     0.0017     0.0211     0.0154     0.0389     5.4972    24.6400     0.0143     0.3912
   79    1.560   2040.77     0.0297     0.0020     0.0216     0.0156     0.0389     6.8015    24.9600     0.0139     0.4543
   80    1.580   2041.77     0.0340     0.0021     0.0231     0.0158     0.0434     6.2060    25.2800     0.0182     0.3698
   81    1.600   2042.74     0.0343     0.0022     0.0240     0.0160     0.0441     6.1283    25.6000     0.0185     0.4174
   82    1.620   2043.74     0.0377     0.0020     0.0217     0.0162     0.0472     5.3942    25.9200     0.0213     0.3025
   83    1.640   2044.74     0.0348     0.0019     0.0208     0.0164     0.0435     5.5582    26.2400     0.0173     0.2545
   84    1.660   2045.74     0.0369     0.0023     0.0210     0.0166     0.0458     6.2557    26.5600     0.0192     0.2396
   85    1.680   2046.77     0.0346     0.0025     0.0211     0.0168     0.0434     7.2427    26.8800     0.0165     0.2493
   86    1.700   2047.75     0.0352     0.0023     0.0222     0.0170     0.0444     6.4563    27.2000     0.0172     0.2847
   87    1.720   2048.72     0.0343     0.0022     0.0215     0.0172     0.0435     6.3720    27.5200     0.0159     0.2921
   88    1.740   2049.75     0.0333     0.0018     0.0206     0.0174     0.0420     5.7267    27.8400     0.0142     0.2443
   89    1.760   2050.75     0.0370     0.0021     0.0211     0.0176     0.0457     5.5307    28.1600     0.0175     0.1728
   90    1.780   2051.74     0.0362     0.0022     0.0226     0.0178     0.0455     6.0688    28.4800     0.0170     0.2524
   91    1.800   2052.73     0.0373     0.0025     0.0240     0.0180     0.0472     6.8469    28.8000     0.0184     0.3006
   92    1.820   2053.71     0.0359     0.0026     0.0253     0.0182     0.0463     7.3375    29.1200     0.0171     0.3753
   93    1.840   2054.67     0.0359     0.0024     0.0239     0.0184     0.0461     6.9973    29.4400     0.0167     0.3609
   94    1.860   2055.71     0.0401     0.0029     0.0242     0.0186     0.0500     7.1439    29.7600     0.0203     0.2538
   95    1.880   2056.68     0.0368     0.0025     0.0253     0.0188     0.0469     6.8511    30.0800     0.0168     0.3083
   96    1.900   2057.67     0.0428     0.0022     0.0275     0.0190     0.0541     5.2093    30.4000     0.0237     0.3314
   97    1.920   2058.70     0.0508     0.0024     0.0295     0.0192     0.0628     4.8032    30.7200     0.0321     0.2945
   98    1.940   2059.66     0.0570     0.0026     0.0304     0.0194     0.0700     4.6900    31.0400     0.0390     0.2943
   99    1.960   2060.66     0.0564     0.0030     0.0270     0.0196     0.0684     5.2817    31.3600     0.0370     0.2425
  100    1.980   2061.65     0.0563     0.0029     0.0259     0.0198     0.0669     5.2018    31.6800     0.0352     0.1537
  101    2.000   2062.65     0.0548     0.0030     0.0271     0.0200     0.0659     5.4392    32.0000     0.0339     0.1896
  102    2.020   2063.58     0.0519     0.0029     0.0282     0.0202     0.0635     5.5593    32.3200     0.0311     0.2370
  103    2.040   2064.58     0.0488     0.0030     0.0317     0.0204     0.0616     5.9835    32.6400     0.0290     0.3481
  104    2.060   2065.58     0.0463     0.0031     0.0335     0.0206     0.0601     6.4217    32.9600     0.0271     0.4508
  105    2.080   2066.58     0.0509     0.0029     0.0350     0.0208     0.0655     5.7527    33.2800     0.0322     0.4353
  106    2.100   2067.58     0.0537     0.0032     0.0362     0.0210     0.0690     5.8610    33.6000     0.0354     0.4378
  107    2.120   2079.35     0.0594     0.0032     0.0338     0.0212     0.0740     5.5379    33.9200     0.0401     0.3435
  108    2.140   2103.30     0.0630     0.0032     0.0312     0.0214     0.0765     5.5945    34.2400     0.0423     0.2615
  109    2.160   2127.24     0.0667     0.0032     0.0286     0.0216     0.0791     5.4380    34.5600     0.0445     0.1794
  110    2.180   2135.77     0.0660     0.0031     0.0316     0.0218     0.0789     4.6589    34.8800     0.0440     0.2028
  111    2.200   2136.78     0.0678     0.0033     0.0354     0.0220     0.0823     4.7123    35.2000     0.0471     0.2641
  112    2.220   2137.74     0.0717     0.0027     0.0380     0.0222     0.0874     3.8351    35.5200     0.0519     0.2933
  113    2.240   2138.76     0.0738     0.0030     0.0405     0.0224     0.0904     4.0282    35.8400     0.0546     0.3153
  114    2.260   2139.72     0.0784     0.0030     0.0397     0.0226     0.0957     3.8059    36.1600     0.0595     0.3116
  115    2.280   2140.74     0.0793     0.0029     0.0406     0.0228     0.0965     3.7495    36.4800     0.0601     0.3032
  116    2.300   2141.74     0.0828     0.0029     0.0357     0.0230     0.0984     3.5333    36.8000     0.0616     0.2287
  117    2.320   2142.69     0.0836     0.0034     0.0416     0.0232     0.1004     4.0483    37.1200     0.0633     0.2657
  118    2.340   2143.69     0.0825     0.0034     0.0451     0.0234     0.1010     4.0645    37.4400     0.0635     0.3242
  119    2.360   2144.69     0.0811     0.0034     0.0454     0.0236     0.1004     4.1519    37.7600     0.0626     0.3570
  120    2.380   2145.69     0.0813     0.0031     0.0445     0.0238     0.1001     3.8601    38.0800     0.0621     0.3407
  121    2.400   2146.64     0.0793     0.0031     0.0427     0.0240     0.0976     3.9363    38.4000     0.0592     0.3300
  122    2.420   2147.60     0.0783     0.0030     0.0453     0.0242     0.0966     3.7492    38.7200     0.0579     0.3335
  123    2.440   2148.60     0.0832     0.0036     0.0482     0.0244     0.1031     4.3659    39.0400     0.0641     0.3593
  124    2.460   2149.58     0.0873     0.0031     0.0472     0.0246     0.1069     3.6048    39.3600     0.0675     0.3271
  125    2.480   2150.59     0.0833     0.0034     0.0457     0.0248     0.1027     4.1640    39.6800     0.0630     0.3420
  126    2.500   2151.59     0.0908     0.0038     0.0436     0.0250     0.1094     4.3268    40.0000     0.0694     0.2776
  127    2.520   2152.57     0.0899     0.0039     0.0422     0.0252     0.1080     4.3878    40.3200     0.0677     0.2637
  128    2.540   2153.59     0.0921     0.0037     0.0438     0.0254     0.1103     3.9887    40.6400     0.0696     0.2554
  129    2.560   2154.54     0.0930     0.0035     0.0456     0.0256     0.1118     3.8069    40.9600     0.0709     0.2717
  130    2.580   2155.54     0.0936     0.0039     0.0503     0.0258     0.1140     4.2043    41.2800     0.0727     0.3121
  131    2.600   2156.51     0.0889     0.0041     0.0552     0.0260     0.1114     4.5904    41.6000     0.0698     0.3955
  132    2.620   2157.52     0.0882     0.0035     0.0576     0.0262     0.1119     4.0194    41.9200     0.0700     0.4332
  133    2.640   2158.51     0.0889     0.0035     0.0600     0.0264     0.1138     4.0777    42.2400     0.0715     0.4595
  134    2.660   2159.52     0.0879     0.0033     0.0608     0.0266     0.1132     3.7660    42.5600     0.0707     0.4776
