

 Program UNIPLOT                         version 05.36.02
 _______________
 (c) Fugro Netherlands Marine, Nootdorp, The Netherlands


 ASCII representation of data plotted on a graph.

 This ASCII file presents data interpolated to values per fixed depth interval.
 The data are corrected for the depth-offset differences between the various 
 transducers in the penetrometer.

 The records at the start of penetration may include no values or anomalous
 values where a depth offset implies incomplete penetration of a particular
 sensor into the ground.

 The records at the end of penetration may include no values for data channels
 where the transducer did not reach this depth.

 The reference level for test values is (1) the ground surface for onshore tests and (2) the seafloor for nearshore and offshore tests.

 UNICAS data file          : CPT-2003.000                            
 Output using command file : PlotASCII.cmd

 ASCII file created at : date          :05-Jul-2022
                         time          :21:33:46
 Project number                        :20024805                                                                                            
 Date of testing                       :28-Jun-2022                                                                                         
 Location                              :Hong Kong Offshore Wind Farm Project                                                                
 Test name                             :CPT-2003
 Penetrometer                          :F7.5CKE2HAW2/B/3285
 Serial no                             :1701-3285

 Table description:
 Column ID                             :Parameter name
 ___________________________________________________________________________________
 Rec                                   :Record ID, Record ID [-]
 Depth                                 :Depth, Depth [m]
 Time                                  :Time, Time [s]
 Cone                                  :Cone Resistance, Cone Resistance [MPa]
 Friction                              :Sleeve Friction, Sleeve Friction [MPa]
 Pore 2                                :Porewater Pressure, Porewater Pressure at Shoulder [MPa]
 HydroPress                            :Hydrostatic Pressure, Hydrostatic Pressure [MPa]
 qt                                    :Total Cone Resistance, Total Cone Resistance [MPa]
 Fric_ratio                            :Friction Ratio, Friction Ratio [%]
 SigmaVert                             :Vertical stress, Vertical stress [kPa] as specified in ground model
 Qnet                                  :Net Cone Resistance, Net Cone Resistance [MPa], unit weight as specified in ground model
 Bq                                    :Porewater Pressure Ratio, Porewater Pressure Ratio [-], unit weight as specified in ground model


 Data table:
  Rec    Depth      Time       Cone   Friction     Pore 2 HydroPress         qt Fric_ratio  SigmaVert       Qnet         Bq
   No        m         s        MPa        MPa        MPa        MPa        MPa          %        kPa        MPa          -
    1    0.000   2094.72     0.0000                           0.0000     0.0000                0.0000     0.0000           
    2    0.020   2095.74     0.0003               -0.0003     0.0002     0.0002                0.3200    -0.0001     2.9812
    3    0.040   2096.75     0.0020                0.0002     0.0004     0.0020                0.6400     0.0013    -0.3412
    4    0.060   2097.77     0.0011                0.0005     0.0006     0.0012                0.9600     0.0002     2.2759
    5    0.080   2098.79     0.0036                0.0006     0.0008     0.0039                1.2800     0.0026    -0.0467
    6    0.100   2099.80     0.0034                0.0009     0.0010     0.0038                1.6000     0.0022    -0.0159
    7    0.120   2100.78     0.0026     0.0001     0.0015     0.0012     0.0031     2.9735     1.9200     0.0012    -0.2456
    8    0.140   2101.80     0.0097     0.0003     0.0012     0.0014     0.0103     3.4475     2.2400     0.0081     0.0154
    9    0.160   2104.78     0.0122     0.0002    -0.0001     0.0016     0.0124     1.8632     2.5600     0.0098    -0.1028
   10    0.180   2109.22     0.0140     0.0006    -0.0014     0.0018     0.0136     5.4217     2.8800     0.0107    -0.2256
   11    0.200   2113.66     0.0158     0.0005    -0.0028     0.0020     0.0149     4.1522     3.2000     0.0117    -0.3483
   12    0.220   2117.80     0.0176     0.0005    -0.0026     0.0022     0.0162     3.1587     3.5200     0.0127    -0.4433
   13    0.240   2118.81     0.0186     0.0004    -0.0009     0.0024     0.0180     2.1398     3.8400     0.0142    -0.2618
   14    0.260   2119.80     0.0214     0.0005     0.0017     0.0026     0.0220     2.5938     4.1600     0.0178    -0.0750
   15    0.280   2120.79     0.0247     0.0008     0.0016     0.0028     0.0256     3.6838     4.4800     0.0211    -0.0414
   16    0.300   2121.77     0.0370     0.0011    -0.0009     0.0030     0.0365     3.2171     4.8000     0.0317    -0.1324
   17    0.320   2122.74     0.0428     0.0016    -0.0075     0.0032     0.0404     4.0621     5.1200     0.0353    -0.2497
   18    0.340   2123.73     0.0426     0.0022    -0.0141     0.0034     0.0367     5.2232     5.4400     0.0313    -0.5575
   19    0.360   2124.73     0.0426     0.0027    -0.0114     0.0036     0.0364     6.2553     5.7600     0.0307    -0.5977
   20    0.380   2125.69     0.0397     0.0030    -0.0100     0.0038     0.0351     7.4412     6.0800     0.0290    -0.5069
   21    0.400   2126.66     0.0344     0.0033    -0.0070     0.0040     0.0308     9.3494     6.4000     0.0244    -0.5133
   22    0.420   2136.89     0.0371     0.0030    -0.0030     0.0042     0.0353     8.0343     6.7200     0.0286    -0.2941
   23    0.440   2158.40     0.0353     0.0029     0.0006     0.0044     0.0350     7.7186     7.0400     0.0280    -0.1771
   24    0.460   2179.90     0.0335     0.0028     0.0037     0.0046     0.0348     7.8158     7.3600     0.0274    -0.0600
   25    0.480   2184.04     0.0314     0.0027     0.0047     0.0048     0.0333     8.7267     7.6800     0.0256    -0.0113
   26    0.500   2185.02     0.0310     0.0025     0.0046     0.0050     0.0330     7.7870     8.0000     0.0250    -0.0110
   27    0.520   2186.02     0.0299     0.0023     0.0050     0.0052     0.0319     8.0756     8.3200     0.0236    -0.0249
   28    0.540   2187.01     0.0308     0.0023     0.0063     0.0054     0.0332     7.6480     8.6400     0.0246     0.0148
   29    0.560   2188.01     0.0295     0.0021     0.0072     0.0056     0.0325     7.2559     8.9600     0.0235     0.0613
   30    0.580   2188.99     0.0292     0.0021     0.0075     0.0058     0.0323     7.3524     9.2800     0.0230     0.0610
   31    0.600   2189.97     0.0305     0.0021     0.0090     0.0060     0.0341     7.0918     9.6000     0.0245     0.1026
   32    0.620   2190.94     0.0292     0.0023     0.0097     0.0062     0.0331     7.8244     9.9200     0.0232     0.1356
   33    0.640   2191.91     0.0309     0.0020     0.0109     0.0064     0.0354     6.2118    10.2400     0.0252     0.1670
   34    0.660   2192.88     0.0330     0.0022     0.0117     0.0066     0.0378     6.7955    10.5600     0.0272     0.1772
   35    0.680   2193.90     0.0329     0.0017     0.0128     0.0068     0.0381     5.0695    10.8800     0.0272     0.2040
   36    0.700   2194.87     0.0328     0.0019     0.0131     0.0070     0.0383     5.8609    11.2000     0.0271     0.2237
   37    0.720   2195.84     0.0317     0.0023     0.0137     0.0072     0.0374     7.0152    11.5200     0.0259     0.2476
   38    0.740   2196.85     0.0325     0.0020     0.0144     0.0074     0.0384     6.4420    11.8400     0.0266     0.2520
   39    0.760   2197.78     0.0365     0.0019     0.0152     0.0076     0.0428     5.3895    12.1600     0.0306     0.2370
   40    0.780   2198.74     0.0339     0.0020     0.0158     0.0078     0.0405     6.1213    12.4800     0.0280     0.2792
   41    0.800   2199.76     0.0362     0.0020     0.0163     0.0080     0.0430     5.3374    12.8000     0.0302     0.2706
   42    0.820   2200.73     0.0345     0.0019     0.0170     0.0082     0.0415     5.5335    13.1200     0.0283     0.2975
   43    0.840   2201.70     0.0323     0.0020     0.0174     0.0084     0.0395     6.3266    13.4400     0.0261     0.3401
   44    0.860   2202.67     0.0328     0.0019     0.0176     0.0086     0.0401     5.5574    13.7600     0.0263     0.3342
   45    0.880   2203.59     0.0383     0.0018     0.0179     0.0088     0.0458     4.6487    14.0800     0.0317     0.2843
   46    0.900   2204.56     0.0353     0.0020     0.0184     0.0090     0.0429     5.6096    14.4000     0.0285     0.3210
   47    0.920   2205.56     0.0371     0.0018     0.0187     0.0092     0.0449     4.8621    14.7200     0.0302     0.3133
   48    0.940   2206.54     0.0397     0.0020     0.0191     0.0094     0.0476     5.2769    15.0400     0.0326     0.2917
   49    0.960   2207.51     0.0393     0.0023     0.0195     0.0096     0.0474     5.9205    15.3600     0.0321     0.3071
   50    0.980   2208.48     0.0404     0.0022     0.0194     0.0098     0.0486     5.3907    15.6800     0.0329     0.2958
   51    1.000   2209.47     0.0423     0.0022     0.0187     0.0100     0.0503     5.1758    16.0000     0.0343     0.2603
   52    1.020   2210.44     0.0408     0.0022     0.0185     0.0102     0.0486     5.5007    16.3200     0.0323     0.2578
   53    1.040   2211.42     0.0425     0.0022     0.0188     0.0104     0.0504     4.9267    16.6400     0.0338     0.2460
   54    1.060   2212.40     0.0424     0.0022     0.0193     0.0106     0.0503     4.9696    16.9600     0.0334     0.2511
   55    1.080   2213.39     0.0397     0.0020     0.0194     0.0108     0.0479     5.0895    17.2800     0.0306     0.2814
   56    1.100   2214.37     0.0395     0.0019     0.0200     0.0110     0.0478     4.7991    17.6000     0.0302     0.2911
   57    1.120   2215.35     0.0401     0.0021     0.0207     0.0112     0.0487     5.3859    17.9200     0.0308     0.3011
   58    1.140   2216.33     0.0441     0.0021     0.0218     0.0114     0.0530     4.8614    18.2400     0.0348     0.2874
   59    1.160   2217.30     0.0429     0.0023     0.0230     0.0116     0.0523     5.2630    18.5600     0.0338     0.3250
   60    1.180   2218.27     0.0404     0.0027     0.0241     0.0118     0.0504     6.6890    18.8800     0.0315     0.3814
   61    1.200   2219.27     0.0410     0.0023     0.0252     0.0120     0.0515     5.5155    19.2000     0.0323     0.4044
   62    1.220   2220.23     0.0412     0.0025     0.0260     0.0122     0.0520     6.0140    19.5200     0.0325     0.4156
   63    1.240   2221.17     0.0397     0.0024     0.0268     0.0124     0.0509     5.8495    19.8400     0.0311     0.4580
   64    1.260   2222.17     0.0399     0.0023     0.0275     0.0126     0.0513     5.5423    20.1600     0.0312     0.4691
   65    1.280   2223.11     0.0367     0.0022     0.0282     0.0128     0.0484     5.5656    20.4800     0.0279     0.5425
   66    1.300   2224.13     0.0378     0.0020     0.0288     0.0130     0.0498     5.1464    20.8000     0.0290     0.5395
   67    1.320   2225.10     0.0431     0.0018     0.0296     0.0132     0.0554     4.2585    21.1200     0.0342     0.4694
   68    1.340   2226.06     0.0400     0.0019     0.0303     0.0134     0.0526     4.8423    21.4400     0.0312     0.5360
   69    1.360   2227.04     0.0425     0.0022     0.0312     0.0136     0.0555     5.2839    21.7600     0.0338     0.5139
   70    1.380   2228.00     0.0457     0.0022     0.0310     0.0138     0.0588     4.8581    22.0800     0.0367     0.4721
   71    1.400   2228.98     0.0488     0.0024     0.0302     0.0140     0.0616     4.9916    22.4000     0.0392     0.4199
   72    1.420   2229.96     0.0533     0.0026     0.0300     0.0142     0.0660     5.0108    22.7200     0.0433     0.3697
   73    1.440   2230.94     0.0554     0.0029     0.0291     0.0144     0.0677     5.2796    23.0400     0.0447     0.3324
   74    1.460   2231.93     0.0566     0.0026     0.0286     0.0146     0.0686     4.6324    23.3600     0.0452     0.3108
   75    1.480   2232.92     0.0568     0.0029     0.0287     0.0148     0.0690     5.2082    23.6800     0.0453     0.3152
   76    1.500   2233.92     0.0589     0.0032     0.0268     0.0150     0.0703     5.4566    24.0000     0.0463     0.2626
   77    1.520   2234.89     0.0582     0.0031     0.0296     0.0152     0.0702     5.4640    24.3200     0.0459     0.2940
   78    1.540   2235.88     0.0579     0.0029     0.0320     0.0154     0.0710     5.0095    24.6400     0.0463     0.3404
   79    1.560   2236.88     0.0583     0.0027     0.0340     0.0156     0.0721     4.7629    24.9600     0.0472     0.3655
   80    1.580   2237.87     0.0575     0.0025     0.0352     0.0158     0.0721     4.3779    25.2800     0.0468     0.4028
   81    1.600   2238.84     0.0602     0.0028     0.0369     0.0160     0.0756     4.7068    25.6000     0.0500     0.4110
   82    1.620   2239.81     0.0627     0.0031     0.0387     0.0162     0.0786     5.0196    25.9200     0.0527     0.4098
   83    1.640   2240.78     0.0645     0.0027     0.0395     0.0164     0.0810     4.2335    26.2400     0.0548     0.4175
   84    1.660   2241.79     0.0688     0.0031     0.0387     0.0166     0.0853     4.4505    26.5600     0.0588     0.3852
   85    1.680   2242.73     0.0677     0.0031     0.0367     0.0168     0.0836     4.6273    26.8800     0.0567     0.3733
   86    1.700   2243.77     0.0664     0.0033     0.0372     0.0170     0.0817     4.9106    27.2000     0.0545     0.3592
   87    1.720   2244.73     0.0771     0.0036     0.0402     0.0172     0.0935     4.9251    27.5200     0.0660     0.3335
   88    1.740   2245.70     0.0860     0.0037     0.0420     0.0174     0.1035     4.4234    27.8400     0.0757     0.3214
   89    1.760   2246.67     0.0852     0.0035     0.0400     0.0176     0.1029     4.0874    28.1600     0.0748     0.3302
   90    1.780   2247.65     0.0837     0.0037     0.0371     0.0178     0.0995     4.4768    28.4800     0.0710     0.2768
   91    1.800   2248.61     0.0797     0.0035     0.0390     0.0180     0.0956     4.4404    28.8000     0.0668     0.2968
   92    1.820   2249.64     0.0774     0.0033     0.0443     0.0182     0.0953     4.3143    29.1200     0.0662     0.3679
   93    1.840   2250.59     0.0792     0.0035     0.0477     0.0184     0.0988     4.4253    29.4400     0.0694     0.4081
   94    1.860   2251.55     0.0799     0.0034     0.0491     0.0186     0.1003     4.3006    29.7600     0.0705     0.4230
   95    1.880   2252.52     0.0788     0.0034     0.0509     0.0188     0.0999     4.3085    30.0800     0.0699     0.4497
   96    1.900   2253.51     0.0785     0.0034     0.0522     0.0190     0.1003     4.3543    30.4000     0.0699     0.4714
   97    1.920   2254.49     0.0818     0.0034     0.0513     0.0192     0.1035     4.1985    30.7200     0.0728     0.4466
   98    1.940   2255.54     0.0799     0.0034     0.0540     0.0194     0.1022     4.1602    31.0400     0.0712     0.4762
   99    1.960   2256.51     0.0818     0.0034     0.0556     0.0196     0.1049     4.2195    31.3600     0.0736     0.4810
  100    1.980   2257.48     0.0843     0.0034     0.0573     0.0198     0.1082     3.9770    31.6800     0.0765     0.4830
  101    2.000   2258.44     0.0863     0.0036     0.0575     0.0200     0.1104     4.1996    32.0000     0.0784     0.4769
  102    2.020   2259.46     0.0902     0.0038     0.0565     0.0202     0.1138     4.1569    32.3200     0.0814     0.4419
  103    2.040   2260.43     0.0898     0.0039     0.0573     0.0204     0.1139     4.2891    32.6400     0.0812     0.4529
  104    2.060   2261.45     0.0906     0.0041     0.0578     0.0206     0.1147     4.5432    32.9600     0.0817     0.4506
  105    2.080   2262.42     0.0894     0.0041     0.0576     0.0208     0.1138     4.5889    33.2800     0.0805     0.4633
  106    2.100   2263.44     0.0856     0.0041     0.0556     0.0210     0.1092     4.8940    33.6000     0.0756     0.4662
  107    2.120   2264.41     0.0839     0.0041     0.0535     0.0212     0.1067     4.7831    33.9200     0.0728     0.4564
  108    2.140   2265.38     0.0809     0.0040     0.0541     0.0214     0.1033     4.9212    34.2400     0.0691     0.4631
  109    2.160   2266.34     0.0760     0.0039     0.0552     0.0216     0.0991     5.1204    34.5600     0.0645     0.5166
  110    2.180   2267.37     0.0736     0.0033     0.0587     0.0218     0.0980     4.4951    34.8800     0.0631     0.5728
  111    2.200   2268.31     0.0723     0.0034     0.0605     0.0220     0.0974     4.6227    35.2000     0.0622     0.6043
  112    2.220   2269.29     0.0756     0.0030     0.0629     0.0222     0.1017     4.0152    35.5200     0.0662     0.6025
  113    2.240   2270.27     0.0778     0.0033     0.0643     0.0224     0.1045     4.2312    35.8400     0.0687     0.6014
  114    2.260   2271.22     0.0828     0.0030     0.0662     0.0226     0.1102     3.6821    36.1600     0.0740     0.5745
  115    2.280   2272.24     0.0858     0.0032     0.0654     0.0228     0.1138     3.8296    36.4800     0.0773     0.5661
  116    2.300   2273.20     0.0850     0.0034     0.0619     0.0230     0.1118     3.9625    36.8000     0.0750     0.5438
  117    2.320   2274.20     0.0867     0.0030     0.0608     0.0232     0.1122     3.5077    37.1200     0.0751     0.5019
  118    2.340   2275.17     0.0871     0.0031     0.0650     0.0234     0.1138     3.5294    37.4400     0.0764     0.5250
  119    2.360   2276.11     0.0893     0.0032     0.0679     0.0236     0.1176     3.6786    37.7600     0.0798     0.5477
  120    2.380   2277.12     0.0900     0.0035     0.0704     0.0238     0.1194     3.7347    38.0800     0.0814     0.5696
  121    2.400   2278.12     0.0981     0.0038     0.0701     0.0240     0.1278     3.9737    38.4000     0.0894     0.5216
  122    2.420   2279.10     0.0998     0.0042     0.0632     0.0242     0.1273     4.2126    38.7200     0.0886     0.4665
  123    2.440   2280.07     0.0961     0.0045     0.0594     0.0244     0.1217     4.6471    39.0400     0.0826     0.4410
  124    2.460   2281.04     0.0891     0.0042     0.0556     0.0246     0.1129     4.6491    39.3600     0.0735     0.4370
  125    2.480   2286.58     0.0831     0.0045     0.0564     0.0248     0.1064     5.2931    39.6800     0.0667     0.4647
  126    2.500   2302.69     0.0772     0.0042     0.0591     0.0250     0.1016     5.0067    40.0000     0.0616     0.5541
  127    2.520   2318.81     0.0713     0.0044     0.0619     0.0252     0.0969     5.2307    40.3200     0.0566     0.6434
  128    2.540   2329.57     0.0660     0.0039     0.0645     0.0254     0.0929     5.8187    40.6400     0.0523     0.7398
  129    2.560   2330.55     0.0675     0.0035     0.0653     0.0256     0.0948     5.2922    40.9600     0.0538     0.7326
  130    2.580   2331.50     0.0640     0.0032     0.0670     0.0258     0.0919     4.8709    41.2800     0.0506     0.8010
  131    2.600   2332.49     0.0653     0.0030     0.0684     0.0260     0.0938     4.6827    41.6000     0.0522     0.8034
  132    2.620   2333.49     0.0673     0.0032     0.0711     0.0262     0.0968     4.8318    41.9200     0.0549     0.8037
  133    2.640   2334.51     0.0807     0.0034     0.0736     0.0264     0.1114     4.4011    42.2400     0.0692     0.6769
  134    2.660   2335.48     0.0916     0.0036     0.0752     0.0266     0.1229     4.0550    42.5600     0.0803     0.5972
