

 Program UNIPLOT                         version 05.36.02
 _______________
 (c) Fugro Netherlands Marine, Nootdorp, The Netherlands


 ASCII representation of data plotted on a graph.

 This ASCII file presents data interpolated to values per fixed depth interval.
 The data are corrected for the depth-offset differences between the various 
 transducers in the penetrometer.

 The records at the start of penetration may include no values or anomalous
 values where a depth offset implies incomplete penetration of a particular
 sensor into the ground.

 The records at the end of penetration may include no values for data channels
 where the transducer did not reach this depth.

 The reference level for test values is (1) the ground surface for onshore tests and (2) the seafloor for nearshore and offshore tests.

 UNICAS data file          : CPT-1021.000                            
 Output using command file : PlotASCII.cmd

 ASCII file created at : date          :05-Jul-2022
                         time          :21:33:45
 Project number                        :20024805                                                                                            
 Date of testing                       :23-Jun-2022                                                                                         
 Location                              :Hong Kong Offshore Wind Farm Project                                                                
 Test name                             :CPT-1021
 Penetrometer                          :F7.5CKE2HAW2/B/3285
 Serial no                             :1701-3285

 Table description:
 Column ID                             :Parameter name
 ___________________________________________________________________________________
 Rec                                   :Record ID, Record ID [-]
 Depth                                 :Depth, Depth [m]
 Time                                  :Time, Time [s]
 Cone                                  :Cone Resistance, Cone Resistance [MPa]
 Friction                              :Sleeve Friction, Sleeve Friction [MPa]
 Pore 2                                :Porewater Pressure, Porewater Pressure at Shoulder [MPa]
 HydroPress                            :Hydrostatic Pressure, Hydrostatic Pressure [MPa]
 qt                                    :Total Cone Resistance, Total Cone Resistance [MPa]
 Fric_ratio                            :Friction Ratio, Friction Ratio [%]
 SigmaVert                             :Vertical stress, Vertical stress [kPa] as specified in ground model
 Qnet                                  :Net Cone Resistance, Net Cone Resistance [MPa], unit weight as specified in ground model
 Bq                                    :Porewater Pressure Ratio, Porewater Pressure Ratio [-], unit weight as specified in ground model


 Data table:
  Rec    Depth      Time       Cone   Friction     Pore 2 HydroPress         qt Fric_ratio  SigmaVert       Qnet         Bq
   No        m         s        MPa        MPa        MPa        MPa        MPa          %        kPa        MPa          -
    1    0.000   1651.44     0.0000                           0.0000     0.0000                0.0000     0.0000           
    2    0.020   1652.38     0.0036               -0.0008     0.0002     0.0033                0.3200     0.0029     0.2052
    3    0.040   1653.35     0.0028               -0.0008     0.0004     0.0025                0.6400     0.0019    -0.7243
    4    0.060   1654.34     0.0045     0.0013    -0.0007     0.0006     0.0042    47.2677     0.9600     0.0032    -1.9732
    5    0.080   1655.32     0.0066     0.0012    -0.0008     0.0008     0.0062    18.6823     1.2800     0.0050    -0.3206
    6    0.100   1656.26     0.0060     0.0012    -0.0013     0.0010     0.0056    21.4396     1.6000     0.0040    -0.5010
    7    0.120   1657.23     0.0060     0.0012    -0.0005     0.0012     0.0055    19.4811     1.9200     0.0036    -0.7420
    8    0.140   1658.60     0.0057     0.0009     0.0016     0.0014     0.0059    20.7631     2.2400     0.0036    -1.5288
    9    0.160   1661.37     0.0030     0.0011     0.0008     0.0016     0.0034    31.9189     2.5600     0.0009    -0.4751
   10    0.180   1662.43     0.0028     0.0012     0.0013     0.0018     0.0033    43.0747     2.8800     0.0004    -1.6137
   11    0.200   1663.36     0.0034     0.0011     0.0022     0.0020     0.0042    38.3792     3.2000     0.0010    -0.1269
   12    0.220   1664.33     0.0041     0.0013     0.0021     0.0022     0.0050    33.3804     3.5200     0.0015     0.0412
   13    0.240   1665.30     0.0051     0.0014     0.0019     0.0024     0.0058    47.4162     3.8400     0.0020           
   14    0.260   1669.84     0.0056     0.0015     0.0025     0.0026     0.0065    24.7680     4.1600     0.0024    -0.0918
   15    0.280   1674.93     0.0052     0.0013     0.0031     0.0028     0.0064    22.9619     4.4800     0.0019     0.1014
   16    0.300   1679.53     0.0058     0.0012     0.0036     0.0030     0.0073    22.8400     4.8000     0.0025     0.2341
   17    0.320   1680.51     0.0083     0.0014     0.0040     0.0032     0.0100    15.5684     5.1200     0.0049     0.1889
   18    0.340   1681.50     0.0071     0.0012     0.0042     0.0034     0.0087    17.0348     5.4400     0.0033     0.1133
   19    0.360   1682.44     0.0091     0.0011     0.0050     0.0036     0.0110    13.4545     5.7600     0.0052     0.1797
   20    0.380   1683.41     0.0096     0.0010     0.0050     0.0038     0.0118    14.3128     6.0800     0.0058     0.2818
   21    0.400   1684.35     0.0118     0.0013     0.0046     0.0040     0.0139    12.5701     6.4000     0.0075     0.1464
   22    0.420   1685.35     0.0117     0.0018     0.0043     0.0042     0.0135    14.5032     6.7200     0.0067     0.0047
   23    0.440   1686.30     0.0124     0.0015     0.0040     0.0044     0.0141    13.6394     7.0400     0.0071    -0.0382
   24    0.460   1687.26     0.0142     0.0015     0.0033     0.0046     0.0157    10.1444     7.3600     0.0084    -0.1134
   25    0.480   1688.23     0.0148     0.0013     0.0036     0.0048     0.0162     9.2542     7.6800     0.0085    -0.1977
   26    0.500   1689.17     0.0149     0.0016     0.0044     0.0050     0.0165    11.3413     8.0000     0.0085    -0.1449
   27    0.520   1690.13     0.0127     0.0013     0.0065     0.0052     0.0153     8.9136     8.3200     0.0069     0.1541
   28    0.540   1691.12     0.0105     0.0016     0.0059     0.0054     0.0129    15.9176     8.6400     0.0043     0.0968
   29    0.560   1692.05     0.0121     0.0011     0.0068     0.0056     0.0147     9.1184     8.9600     0.0058     0.1320
   30    0.580   1693.04     0.0115     0.0013     0.0042     0.0058     0.0135    10.5804     9.2800     0.0042    -0.2564
   31    0.600   1693.98     0.0129     0.0013     0.0075     0.0060     0.0159     9.8848     9.6000     0.0063     0.2052
   32    0.620   1694.95     0.0147     0.0013     0.0088     0.0062     0.0185    10.8091     9.9200     0.0086     0.3295
   33    0.640   1695.93     0.0142     0.0011     0.0085     0.0064     0.0178     8.2372    10.2400     0.0076     0.2904
   34    0.660   1696.90     0.0171     0.0012     0.0094     0.0066     0.0207     8.7934    10.5600     0.0102     0.2114
   35    0.680   1697.88     0.0180     0.0012     0.0104     0.0068     0.0223     6.5693    10.8800     0.0115     0.3077
   36    0.700   1698.83     0.0169     0.0012     0.0101     0.0070     0.0212     7.4356    11.2000     0.0100     0.3398
   37    0.720   1699.82     0.0157     0.0010     0.0087     0.0072     0.0195     5.8726    11.5200     0.0080     0.2492
   38    0.740   1700.76     0.0173     0.0011     0.0081     0.0074     0.0207     6.4589    11.8400     0.0089     0.0964
   39    0.760   1701.70     0.0156     0.0011     0.0090     0.0076     0.0191     6.7943    12.1600     0.0069     0.1157
   40    0.780   1702.67     0.0150     0.0011     0.0096     0.0078     0.0190     7.1464    12.4800     0.0065     0.2656
   41    0.800   1703.67     0.0139     0.0014     0.0104     0.0080     0.0182     9.9870    12.8000     0.0054     0.4093
   42    0.820   1704.62     0.0165     0.0014     0.0106     0.0082     0.0209     8.7676    13.1200     0.0078     0.2913
   43    0.840   1705.56     0.0152     0.0012     0.0115     0.0084     0.0197     7.9404    13.4400     0.0063     0.3828
   44    0.860   1706.49     0.0149     0.0011     0.0113     0.0086     0.0198     7.2243    13.7600     0.0061     0.5219
   45    0.880   1707.49     0.0177     0.0012     0.0102     0.0088     0.0219     7.3933    14.0800     0.0078     0.1709
   46    0.900   1708.44     0.0153     0.0013     0.0109     0.0090     0.0197     9.0491    14.4000     0.0053     0.2737
   47    0.920   1709.45     0.0128     0.0014     0.0120     0.0092     0.0176     9.7110    14.7200     0.0029     0.7436
   48    0.940   1710.38     0.0124     0.0012     0.0120     0.0094     0.0175     9.3022    15.0400     0.0025     1.1237
   49    0.960   1711.35     0.0155     0.0013     0.0132     0.0096     0.0208     8.1914    15.3600     0.0054     0.5484
   50    0.980   1712.27     0.0146     0.0013     0.0137     0.0098     0.0204     8.9110    15.6800     0.0047     0.8498
   51    1.000   1713.25     0.0130     0.0013     0.0139     0.0100     0.0188     9.5420    16.0000     0.0028     1.3315
   52    1.020   1714.23     0.0125     0.0010     0.0150     0.0102     0.0187     7.8737    16.3200     0.0024     1.9219
   53    1.040   1715.20     0.0122     0.0014     0.0151     0.0104     0.0185    14.5331    16.6400     0.0019    -3.4439
   54    1.060   1716.14     0.0146     0.0013     0.0154     0.0106     0.0209     8.8822    16.9600     0.0040     1.1672
   55    1.080   1717.13     0.0127     0.0014     0.0154     0.0108     0.0192    11.8081    17.2800     0.0019     2.7025
   56    1.100   1718.13     0.0141     0.0013     0.0164     0.0110     0.0208     9.3061    17.6000     0.0032     1.6881
   57    1.120   1719.09     0.0141     0.0014     0.0173     0.0112     0.0212    10.8081    17.9200     0.0033     2.5096
   58    1.140   1720.08     0.0190     0.0015     0.0188     0.0114     0.0267     7.9357    18.2400     0.0085     0.8243
   59    1.160   1721.05     0.0212     0.0016     0.0200     0.0116     0.0295     8.0231    18.5600     0.0109     0.7390
   60    1.180   1722.04     0.0219     0.0015     0.0195     0.0118     0.0302     7.2328    18.8800     0.0113     0.6982
   61    1.200   1723.00     0.0224     0.0016     0.0196     0.0120     0.0303     7.1707    19.2000     0.0111     0.6130
   62    1.220   1723.95     0.0269     0.0018     0.0213     0.0122     0.0356     6.8854    19.5200     0.0161     0.5303
   63    1.240   1724.95     0.0261     0.0019     0.0219     0.0124     0.0351     7.2750    19.8400     0.0153     0.5938
   64    1.260   1725.86     0.0252     0.0017     0.0225     0.0126     0.0345     6.2411    20.1600     0.0143     0.6643
   65    1.280   1726.86     0.0308     0.0018     0.0231     0.0128     0.0404     6.3451    20.4800     0.0200     0.5150
   66    1.300   1727.82     0.0384     0.0020     0.0233     0.0130     0.0482     5.5899    20.8000     0.0274     0.3739
   67    1.320   1728.78     0.0362     0.0022     0.0238     0.0132     0.0462     5.8068    21.1200     0.0251     0.4222
   68    1.340   1729.75     0.0358     0.0023     0.0236     0.0134     0.0458     6.1610    21.4400     0.0244     0.4234
   69    1.360   1730.70     0.0405     0.0022     0.0233     0.0136     0.0503     5.7259    21.7600     0.0286     0.3463
   70    1.380   1731.67     0.0368     0.0023     0.0252     0.0138     0.0469     6.0887    22.0800     0.0248     0.4110
   71    1.400   1732.62     0.0359     0.0027     0.0277     0.0140     0.0470     7.6263    22.4000     0.0246     0.5066
   72    1.420   1733.59     0.0397     0.0024     0.0294     0.0142     0.0517     6.0048    22.7200     0.0290     0.4962
   73    1.440   1734.56     0.0419     0.0024     0.0297     0.0144     0.0545     5.9042    23.0400     0.0315     0.4939
   74    1.460   1735.53     0.0409     0.0023     0.0280     0.0146     0.0529     5.7248    23.3600     0.0295     0.4764
   75    1.480   1736.48     0.0442     0.0024     0.0292     0.0148     0.0565     5.3945    23.6800     0.0328     0.4411
   76    1.500   1737.48     0.0434     0.0022     0.0271     0.0150     0.0552     5.1368    24.0000     0.0312     0.4225
   77    1.520   1738.43     0.0426     0.0023     0.0269     0.0152     0.0538     5.5719    24.3200     0.0294     0.3866
   78    1.540   1739.39     0.0415     0.0023     0.0278     0.0154     0.0530     5.8002    24.6400     0.0284     0.4247
   79    1.560   1740.36     0.0440     0.0026     0.0307     0.0156     0.0566     5.8318    24.9600     0.0316     0.4569
   80    1.580   1741.33     0.0543     0.0030     0.0312     0.0158     0.0677     5.8633    25.2800     0.0424     0.3778
   81    1.600   1742.31     0.0574     0.0033     0.0286     0.0160     0.0694     5.7728    25.6000     0.0438     0.2878
   82    1.620   1743.29     0.0546     0.0035     0.0300     0.0162     0.0671     6.2986    25.9200     0.0412     0.3316
   83    1.640   1744.26     0.0533     0.0033     0.0281     0.0164     0.0653     6.3867    26.2400     0.0391     0.3116
   84    1.660   1755.82     0.0583     0.0032     0.0304     0.0166     0.0707     5.7827    26.5600     0.0442     0.2914
   85    1.680   1770.00     0.0629     0.0032     0.0327     0.0168     0.0763     5.8573    26.8800     0.0494     0.3026
   86    1.700   1784.19     0.0675     0.0035     0.0349     0.0170     0.0818     6.2284    27.2000     0.0546     0.3139
   87    1.720   1787.72     0.0808     0.0035     0.0373     0.0172     0.0960     4.3470    27.5200     0.0685     0.2790
   88    1.740   1788.69     0.0978     0.0037     0.0374     0.0174     0.1138     4.1659    27.8400     0.0860     0.2433
   89    1.760   1789.69     0.1163     0.0047     0.0273     0.0176     0.1299     4.2642    28.1600     0.1018     0.1467
   90    1.780   1790.65     0.1246     0.0051     0.0245     0.0178     0.1351     4.0343    28.4800     0.1066     0.0675
   91    1.800   1791.60     0.1127     0.0048     0.0183     0.0180     0.1206     4.1267    28.8000     0.0918     0.0088
   92    1.820   1792.58     0.1002     0.0048     0.0134     0.0182     0.1073     4.6584    29.1200     0.0782    -0.0180
   93    1.840   1793.53     0.0889     0.0049     0.0126     0.0184     0.0939     5.3383    29.4400     0.0644    -0.1000
   94    1.860   1794.49     0.0755     0.0051     0.0209     0.0186     0.0826     6.2629    29.7600     0.0529    -0.0298
   95    1.880   1795.43     0.0689     0.0049     0.0290     0.0188     0.0807     7.1543    30.0800     0.0506     0.1843
   96    1.900   1796.39     0.0732     0.0046     0.0314     0.0190     0.0860     6.4929    30.4000     0.0556     0.2066
   97    1.920   1797.36     0.0763     0.0044     0.0314     0.0192     0.0895     5.9378    30.7200     0.0588     0.2069
   98    1.940   1798.32     0.0797     0.0043     0.0330     0.0194     0.0934     5.4047    31.0400     0.0623     0.2103
   99    1.960   1799.29     0.0843     0.0043     0.0334     0.0196     0.0983     5.2167    31.3600     0.0669     0.2039
  100    1.980   1800.26     0.0893     0.0043     0.0325     0.0198     0.1036     4.8325    31.6800     0.0719     0.1966
  101    2.000   1801.22     0.0933     0.0042     0.0294     0.0200     0.1054     4.6368    32.0000     0.0734     0.1186
  102    2.020   1802.18     0.0930     0.0045     0.0370     0.0202     0.1084     4.9058    32.3200     0.0761     0.2166
  103    2.040   1803.15     0.0916     0.0048     0.0363     0.0204     0.1068     5.2793    32.6400     0.0741     0.2130
  104    2.060   1804.13     0.0848     0.0047     0.0320     0.0206     0.0993     5.3169    32.9600     0.0663     0.2095
  105    2.080   1805.11     0.0806     0.0047     0.0285     0.0208     0.0930     5.8555    33.2800     0.0597     0.1445
  106    2.100   1806.05     0.0774     0.0046     0.0299     0.0210     0.0895     5.9186    33.6000     0.0559     0.1403
  107    2.120   1807.00     0.0804     0.0046     0.0362     0.0212     0.0942     5.8130    33.9200     0.0602     0.1930
  108    2.140   1808.00     0.0791     0.0043     0.0417     0.0214     0.0962     5.4478    34.2400     0.0620     0.3100
  109    2.160   1808.97     0.0770     0.0042     0.0425     0.0216     0.0947     5.4597    34.5600     0.0601     0.3400
  110    2.180   1809.95     0.0796     0.0041     0.0438     0.0218     0.0977     5.1895    34.8800     0.0629     0.3403
  111    2.200   1810.91     0.0779     0.0037     0.0471     0.0220     0.0970     4.8657    35.2000     0.0618     0.3810
  112    2.220   1811.90     0.0737     0.0037     0.0516     0.0222     0.0947     4.9439    35.5200     0.0591     0.4685
  113    2.240   1812.85     0.0729     0.0036     0.0565     0.0224     0.0960     5.2087    35.8400     0.0602     0.5410
  114    2.260   1813.81     0.0730     0.0033     0.0612     0.0226     0.0981     4.4613    36.1600     0.0620     0.6003
  115    2.280   1814.76     0.0755     0.0034     0.0637     0.0228     0.1020     4.5871    36.4800     0.0655     0.6146
  116    2.300   1815.73     0.0804     0.0034     0.0655     0.0230     0.1076     4.3790    36.8000     0.0708     0.5890
  117    2.320   1816.67     0.0810     0.0032     0.0666     0.0232     0.1089     4.0399    37.1200     0.0718     0.6016
  118    2.340   1817.66     0.0812     0.0035     0.0667     0.0234     0.1092     4.2628    37.4400     0.0717     0.6015
  119    2.360   1818.59     0.0845     0.0037     0.0672     0.0236     0.1124     4.4129    37.7600     0.0746     0.5731
  120    2.380   1819.56     0.0768     0.0035     0.0654     0.0238     0.1048     4.4593    38.0800     0.0667     0.6435
  121    2.400   1820.53     0.0791     0.0033     0.0672     0.0240     0.1075     4.2017    38.4000     0.0691     0.6289
  122    2.420   1821.51     0.0794     0.0033     0.0692     0.0242     0.1081     4.1366    38.7200     0.0694     0.6370
  123    2.440   1822.43     0.0785     0.0033     0.0706     0.0244     0.1080     4.0793    39.0400     0.0690     0.6634
  124    2.460   1823.40     0.0831     0.0036     0.0709     0.0246     0.1128     4.3514    39.3600     0.0734     0.6262
  125    2.480   1824.38     0.0831     0.0037     0.0709     0.0248     0.1131     4.4597    39.6800     0.0734     0.6335
  126    2.500   1825.37     0.0891     0.0039     0.0683     0.0250     0.1183     4.3465    40.0000     0.0783     0.5687
  127    2.520   1826.32     0.0880     0.0039     0.0627     0.0252     0.1153     4.4439    40.3200     0.0750     0.5305
  128    2.540   1827.32     0.0935     0.0039     0.0584     0.0254     0.1184     4.2359    40.6400     0.0778     0.4346
  129    2.560   1828.24     0.0952     0.0037     0.0588     0.0256     0.1196     3.7941    40.9600     0.0787     0.4148
  130    2.580   1829.22     0.0923     0.0040     0.0618     0.0258     0.1178     4.3282    41.2800     0.0766     0.4565
  131    2.600   1830.20     0.0946     0.0040     0.0626     0.0260     0.1210     4.1473    41.6000     0.0794     0.4626
  132    2.620   1831.16     0.0943     0.0040     0.0607     0.0262     0.1200     4.2969    41.9200     0.0781     0.4494
  133    2.640   1832.14     0.0890     0.0041     0.0565     0.0264     0.1137     4.5890    42.2400     0.0714     0.4518
  134    2.660   1833.12     0.0830     0.0039     0.0476     0.0266     0.1047     4.7396    42.5600     0.0622     0.4078
