

 Program UNIPLOT                         version 05.36.02
 _______________
 (c) Fugro Netherlands Marine, Nootdorp, The Netherlands


 ASCII representation of data plotted on a graph.

 This ASCII file presents data interpolated to values per fixed depth interval.
 The data are corrected for the depth-offset differences between the various 
 transducers in the penetrometer.

 The records at the start of penetration may include no values or anomalous
 values where a depth offset implies incomplete penetration of a particular
 sensor into the ground.

 The records at the end of penetration may include no values for data channels
 where the transducer did not reach this depth.

 The reference level for test values is (1) the ground surface for onshore tests and (2) the seafloor for nearshore and offshore tests.

 UNICAS data file          : CPT-1042.000                            
 Output using command file : PlotASCII.cmd

 ASCII file created at : date          :26-Apr-2022
                         time          :10:11:38
 Project number                        :20024805
 Date of testing                       :21-Apr-2022
 Location                              :Hong Kong Offshore Wind Farm Project
 Test name                             :CPT-1042
 Penetrometer                          :F7.5CKE2HAW2/B/3342
 Serial no                             :1701-3342

 Table description:
 Column ID                             :Parameter name
 ___________________________________________________________________________________
 Rec                                   :Record ID, Record ID [-]
 Depth                                 :Depth, Depth [m]
 Time                                  :Time, Time [s]
 Cone                                  :Cone Resistance, Cone Resistance [MPa]
 Friction                              :Sleeve Friction, Sleeve Friction [MPa]
 Pore 2                                :Porewater Pressure, Porewater Pressure at Shoulder [MPa]
 HydroPress                            :Hydrostatic Pressure, Hydrostatic Pressure [MPa]
 qt                                    :Total Cone Resistance, Total Cone Resistance [MPa]
 Fric_ratio                            :Friction Ratio, Friction Ratio [%]
 SigmaVert                             :Vertical stress, Vertical stress [kPa] as specified in ground model
 Qnet                                  :Net Cone Resistance, Net Cone Resistance [MPa], unit weight as specified in ground model
 Bq                                    :Porewater Pressure Ratio, Porewater Pressure Ratio [-], unit weight as specified in ground model


 Data table:
  Rec    Depth      Time       Cone   Friction     Pore 2 HydroPress         qt Fric_ratio  SigmaVert       Qnet         Bq
   No        m         s        MPa        MPa        MPa        MPa        MPa          %        kPa        MPa          -
    1    0.000   1969.97     0.0000                           0.0000     0.0000                0.0000     0.0000           
    2    0.020   1970.98     0.0021                0.0006     0.0002     0.0023                0.3200     0.0020     0.2083
    3    0.040   1972.00     0.0066                0.0009     0.0004     0.0069                0.6400     0.0063     0.0716
    4    0.060   1976.35     0.0055     0.0005     0.0009     0.0006     0.0059     7.0881     0.9600     0.0050     0.0554
    5    0.080   1980.70     0.0045     0.0005     0.0009     0.0008     0.0049     9.5489     1.2800     0.0036     0.0393
    6    0.100   1981.89     0.0050     0.0007     0.0010     0.0010     0.0054    13.7400     1.6000     0.0038    -0.0013
    7    0.120   1982.88     0.0064     0.0006     0.0009     0.0012     0.0068     8.9187     1.9200     0.0048    -0.0507
    8    0.140   1983.90     0.0078     0.0006     0.0008     0.0014     0.0081     8.3946     2.2400     0.0059    -0.0813
    9    0.160   1984.88     0.0056     0.0007     0.0009     0.0016     0.0059    12.8461     2.5600     0.0033    -0.2390
   10    0.180   1985.91     0.0084     0.0009     0.0008     0.0018     0.0088    10.4136     2.8800     0.0059    -0.1787
   11    0.200   1986.95     0.0119     0.0009     0.0006     0.0020     0.0122    10.4636     3.2000     0.0090    -0.1380
   12    0.220   1987.91     0.0148     0.0013     0.0007     0.0022     0.0152     9.9362     3.5200     0.0117    -0.1066
   13    0.240   1988.88     0.0145     0.0012     0.0003     0.0024     0.0148     8.3426     3.8400     0.0109    -0.1688
   14    0.260   1989.88     0.0175     0.0019    -0.0017     0.0026     0.0173    11.0089     4.1600     0.0131    -0.2489
   15    0.280   1990.92     0.0181     0.0017    -0.0035     0.0028     0.0166     9.5037     4.4800     0.0121    -0.5311
   16    0.300   1991.94     0.0177     0.0021    -0.0019     0.0030     0.0167    12.0905     4.8000     0.0119    -0.4381
   17    0.320   1992.92     0.0204     0.0020    -0.0012     0.0032     0.0196     9.5886     5.1200     0.0145    -0.3368
   18    0.340   1993.91     0.0211     0.0021     0.0011     0.0034     0.0212    10.1998     5.4400     0.0157    -0.2113
   19    0.360   1994.91     0.0187     0.0020     0.0018     0.0036     0.0195    10.6948     5.7600     0.0138    -0.1155
   20    0.380   1995.88     0.0183     0.0022     0.0032     0.0038     0.0194    12.2464     6.0800     0.0133    -0.0924
   21    0.400   1996.88     0.0215     0.0020     0.0016     0.0040     0.0215     9.2612     6.4000     0.0151    -0.2709
   22    0.420   1997.89     0.0200     0.0021     0.0013     0.0042     0.0205    10.8811     6.7200     0.0138    -0.2111
   23    0.440   1998.91     0.0198     0.0023     0.0007     0.0044     0.0200    11.8518     7.0400     0.0129    -0.3176
   24    0.460   1999.91     0.0231     0.0023     0.0031     0.0046     0.0241    10.1712     7.3600     0.0168    -0.1183
   25    0.480   2000.89     0.0206     0.0025     0.0031     0.0048     0.0224    12.6095     7.6800     0.0147    -0.0366
   26    0.500   2001.88     0.0203     0.0022     0.0040     0.0050     0.0215    10.9518     8.0000     0.0135    -0.1571
   27    0.520   2002.90     0.0241     0.0021     0.0054     0.0052     0.0262     8.7092     8.3200     0.0178    -0.0145
   28    0.540   2003.92     0.0231     0.0020     0.0079     0.0054     0.0260     8.9422     8.6400     0.0173     0.0860
   29    0.560   2004.93     0.0253     0.0018     0.0078     0.0056     0.0290     7.2390     8.9600     0.0200     0.1585
   30    0.580   2005.89     0.0245     0.0023     0.0058     0.0058     0.0271     9.4452     9.2800     0.0178     0.0179
   31    0.600   2006.90     0.0276     0.0020     0.0039     0.0060     0.0296     7.4385     9.6000     0.0200    -0.0718
   32    0.620   2007.91     0.0314     0.0022     0.0032     0.0062     0.0328     7.2936     9.9200     0.0229    -0.1188
   33    0.640   2008.86     0.0321     0.0025     0.0008     0.0064     0.0327     8.0204    10.2400     0.0224    -0.2280
   34    0.660   2009.90     0.0330     0.0027    -0.0019     0.0066     0.0325     8.1774    10.5600     0.0219    -0.3570
   35    0.680   2010.94     0.0269     0.0028     0.0014     0.0068     0.0268     9.8613    10.8800     0.0160    -0.4383
   36    0.700   2011.96     0.0301     0.0030     0.0041     0.0070     0.0320    10.2643    11.2000     0.0208    -0.1229
   37    0.720   2012.92     0.0287     0.0028     0.0036     0.0072     0.0304     9.6427    11.5200     0.0189    -0.1582
   38    0.740   2013.93     0.0336     0.0029     0.0068     0.0074     0.0356     8.8147    11.8400     0.0237    -0.1185
   39    0.760   2014.94     0.0304     0.0028     0.0096     0.0076     0.0342     9.2317    12.1600     0.0221     0.0715
   40    0.780   2015.89     0.0271     0.0030     0.0114     0.0078     0.0319    11.0220    12.4800     0.0194     0.1891
   41    0.800   2016.90     0.0277     0.0028     0.0105     0.0080     0.0323    10.0807    12.8000     0.0195     0.1464
   42    0.820   2017.97     0.0262     0.0025     0.0104     0.0082     0.0304     9.5552    13.1200     0.0173     0.0991
   43    0.840   2018.94     0.0243     0.0022     0.0134     0.0084     0.0294     9.0605    13.4400     0.0160     0.2382
   44    0.860   2019.93     0.0254     0.0024     0.0156     0.0086     0.0317     9.3002    13.7600     0.0179     0.3631
   45    0.880   2020.96     0.0251     0.0023     0.0171     0.0088     0.0320     9.0060    14.0800     0.0179     0.4235
   46    0.900   2021.92     0.0285     0.0021     0.0170     0.0090     0.0361     7.4885    14.4000     0.0217     0.4224
   47    0.920   2022.88     0.0285     0.0022     0.0161     0.0092     0.0356     7.7479    14.7200     0.0208     0.3649
   48    0.940   2023.88     0.0330     0.0026     0.0145     0.0094     0.0394     7.9743    15.0400     0.0244     0.2433
   49    0.960   2024.92     0.0387     0.0028     0.0155     0.0096     0.0451     7.9084    15.3600     0.0297     0.1910
   50    0.980   2025.90     0.0379     0.0031     0.0155     0.0098     0.0447     7.9749    15.6800     0.0290     0.2139
   51    1.000   2026.91     0.0456     0.0032     0.0120     0.0100     0.0511     7.7463    16.0000     0.0351     0.0899
   52    1.020   2027.95     0.0464     0.0035     0.0082     0.0102     0.0501     7.3780    16.3200     0.0338    -0.0386
   53    1.040   2028.92     0.0454     0.0035     0.0089     0.0104     0.0487     7.2251    16.6400     0.0321    -0.0781
   54    1.060   2037.18     0.0457     0.0034     0.0064     0.0106     0.0489     7.4176    16.9600     0.0319    -0.1088
   55    1.080   2053.25     0.0446     0.0029     0.0027     0.0108     0.0462     6.3230    17.2800     0.0290    -0.2661
   56    1.100   2069.32     0.0435     0.0029    -0.0006     0.0110     0.0436     6.3078    17.6000     0.0260    -0.4234
   57    1.120   2074.66     0.0427     0.0030     0.0051     0.0112     0.0437     6.9498    17.9200     0.0258    -0.3428
   58    1.140   2075.64     0.0391     0.0028     0.0115     0.0114     0.0428     7.0628    18.2400     0.0245    -0.1056
   59    1.160   2076.68     0.0366     0.0024     0.0168     0.0116     0.0432     6.4194    18.5600     0.0246     0.1681
   60    1.180   2077.73     0.0350     0.0025     0.0181     0.0118     0.0424     7.0422    18.8800     0.0235     0.2498
   61    1.200   2078.72     0.0354     0.0027     0.0194     0.0120     0.0434     7.5346    19.2000     0.0242     0.2903
   62    1.220   2079.73     0.0366     0.0025     0.0202     0.0122     0.0450     6.7047    19.5200     0.0255     0.3045
   63    1.240   2080.70     0.0354     0.0028     0.0203     0.0124     0.0440     7.9197    19.8400     0.0241     0.3312
   64    1.260   2081.73     0.0366     0.0026     0.0222     0.0126     0.0455     6.9073    20.1600     0.0254     0.3471
   65    1.280   2082.72     0.0366     0.0027     0.0239     0.0128     0.0464     7.4957    20.4800     0.0259     0.4100
   66    1.300   2083.68     0.0326     0.0024     0.0251     0.0130     0.0430     7.5076    20.8000     0.0222     0.5289
   67    1.320   2084.69     0.0320     0.0023     0.0263     0.0132     0.0429     7.4016    21.1200     0.0217     0.5832
   68    1.340   2085.66     0.0328     0.0019     0.0283     0.0134     0.0444     5.7573    21.4400     0.0230     0.6191
   69    1.360   2086.68     0.0323     0.0021     0.0296     0.0136     0.0446     6.5460    21.7600     0.0228     0.6876
   70    1.380   2087.69     0.0378     0.0023     0.0314     0.0138     0.0508     5.8838    22.0800     0.0287     0.5933
   71    1.400   2088.71     0.0382     0.0025     0.0317     0.0140     0.0514     6.8256    22.4000     0.0290     0.6051
   72    1.420   2089.69     0.0404     0.0022     0.0330     0.0142     0.0540     5.4912    22.7200     0.0313     0.5852
   73    1.440   2090.67     0.0442     0.0024     0.0246     0.0144     0.0560     5.6184    23.0400     0.0330     0.4269
   74    1.460   2091.66     0.0472     0.0026     0.0251     0.0146     0.0573     5.4907    23.3600     0.0339     0.2826
   75    1.480   2092.65     0.0465     0.0027     0.0269     0.0148     0.0574     5.7587    23.6800     0.0337     0.3292
   76    1.500   2093.67     0.0475     0.0028     0.0270     0.0150     0.0581     5.9326    24.0000     0.0341     0.3053
   77    1.520   2094.72     0.0508     0.0027     0.0247     0.0152     0.0613     5.3757    24.3200     0.0370     0.2619
   78    1.540   2095.70     0.0520     0.0026     0.0252     0.0154     0.0630     5.0431    24.6400     0.0383     0.2763
   79    1.560   2096.72     0.0550     0.0028     0.0257     0.0156     0.0654     4.9816    24.9600     0.0405     0.2314
   80    1.580   2097.67     0.0527     0.0027     0.0217     0.0158     0.0625     5.1669    25.2800     0.0372     0.1984
   81    1.600   2098.69     0.0496     0.0027     0.0223     0.0160     0.0583     5.4455    25.6000     0.0327     0.1452
   82    1.620   2099.70     0.0477     0.0028     0.0285     0.0162     0.0590     5.7952    25.9200     0.0331     0.3218
   83    1.640   2100.71     0.0459     0.0025     0.0294     0.0164     0.0583     5.4208    26.2400     0.0321     0.4098
   84    1.660   2101.72     0.0468     0.0024     0.0320     0.0166     0.0597     5.1097    26.5600     0.0332     0.4272
   85    1.680   2102.73     0.0468     0.0023     0.0347     0.0168     0.0612     4.6947    26.8800     0.0343     0.5104
   86    1.700   2103.74     0.0474     0.0022     0.0360     0.0170     0.0622     4.6669    27.2000     0.0350     0.5222
   87    1.720   2104.71     0.0515     0.0020     0.0375     0.0172     0.0669     3.8767    27.5200     0.0394     0.4965
   88    1.740   2105.69     0.0544     0.0023     0.0403     0.0174     0.0709     4.1651    27.8400     0.0431     0.5083
   89    1.760   2106.69     0.0577     0.0024     0.0384     0.0176     0.0744     4.0850    28.1600     0.0462     0.4778
   90    1.780   2107.73     0.0619     0.0024     0.0350     0.0178     0.0773     3.9839    28.4800     0.0489     0.3893
   91    1.800   2108.73     0.0624     0.0025     0.0322     0.0180     0.0757     4.0934    28.8000     0.0469     0.2943
   92    1.820   2109.75     0.0619     0.0024     0.0393     0.0182     0.0774     3.9178    29.1200     0.0482     0.3857
   93    1.840   2110.73     0.0630     0.0025     0.0380     0.0184     0.0799     3.9172    29.4400     0.0504     0.4302
   94    1.860   2111.75     0.0625     0.0027     0.0330     0.0186     0.0764     4.2356    29.7600     0.0467     0.3116
   95    1.880   2112.74     0.0599     0.0027     0.0392     0.0188     0.0751     4.5094    30.0800     0.0450     0.3869
   96    1.900   2113.71     0.0616     0.0025     0.0453     0.0190     0.0799     4.1142    30.4000     0.0495     0.4991
   97    1.920   2114.71     0.0652     0.0026     0.0480     0.0192     0.0851     3.9547    30.7200     0.0544     0.5171
   98    1.940   2115.71     0.0707     0.0027     0.0489     0.0194     0.0914     3.8968    31.0400     0.0604     0.4940
   99    1.960   2116.71     0.0748     0.0029     0.0420     0.0196     0.0931     3.8777    31.3600     0.0617     0.3901
  100    1.980   2117.73     0.0778     0.0028     0.0433     0.0198     0.0954     3.6641    31.6800     0.0637     0.3456
  101    2.000   2118.71     0.0817     0.0032     0.0416     0.0200     0.0998     4.0043    32.0000     0.0678     0.3379
  102    2.020   2119.72     0.0855     0.0032     0.0386     0.0202     0.1021     3.7290    32.3200     0.0698     0.2771
  103    2.040   2120.72     0.0847     0.0031     0.0453     0.0204     0.1022     3.6706    32.6400     0.0696     0.3078
  104    2.060   2121.71     0.0818     0.0031     0.0515     0.0206     0.1027     3.8478    32.9600     0.0698     0.4195
  105    2.080   2122.68     0.0822     0.0030     0.0534     0.0208     0.1039     3.6131    33.2800     0.0706     0.4369
  106    2.100   2123.72     0.0808     0.0030     0.0563     0.0210     0.1040     3.7696    33.6000     0.0704     0.4875
  107    2.120   2124.72     0.0849     0.0031     0.0531     0.0212     0.1079     3.6782    33.9200     0.0740     0.4536
  108    2.140   2125.74     0.0882     0.0034     0.0504     0.0214     0.1098     3.8402    34.2400     0.0755     0.3976
  109    2.160   2126.73     0.0884     0.0034     0.0483     0.0216     0.1088     3.8480    34.5600     0.0743     0.3648
  110    2.180   2127.77     0.0879     0.0036     0.0471     0.0218     0.1078     4.0921    34.8800     0.0729     0.3493
  111    2.200   2128.76     0.0888     0.0036     0.0496     0.0220     0.1090     4.0769    35.2000     0.0738     0.3549
  112    2.220   2129.78     0.0927     0.0039     0.0511     0.0222     0.1141     4.2633    35.5200     0.0785     0.3659
  113    2.240   2130.79     0.0917     0.0037     0.0496     0.0224     0.1130     4.0236    35.8400     0.0772     0.3666
  114    2.260   2131.75     0.0909     0.0033     0.0439     0.0226     0.1105     3.6164    36.1600     0.0744     0.3227
  115    2.280   2132.76     0.0834     0.0035     0.0381     0.0228     0.0998     4.1817    36.4800     0.0634     0.2573
  116    2.300   2133.75     0.0832     0.0035     0.0402     0.0230     0.0993     4.1521    36.8000     0.0625     0.2431
  117    2.320   2134.75     0.0782     0.0035     0.0488     0.0232     0.0981     4.5030    37.1200     0.0609     0.3962
  118    2.340   2135.78     0.0783     0.0034     0.0498     0.0234     0.0987     4.3864    37.4400     0.0612     0.4101
  119    2.360   2136.76     0.0784     0.0031     0.0554     0.0236     0.1010     3.9890    37.7600     0.0632     0.4779
  120    2.380   2137.77     0.0755     0.0032     0.0570     0.0238     0.0996     4.1579    38.0800     0.0615     0.5475
  121    2.400   2138.77     0.0750     0.0027     0.0580     0.0240     0.0987     3.6130    38.4000     0.0603     0.5389
  122    2.420   2139.77     0.0738     0.0029     0.0637     0.0242     0.0999     3.9197    38.7200     0.0611     0.6189
  123    2.440   2140.73     0.0716     0.0028     0.0671     0.0244     0.0993     3.8590    39.0400     0.0603     0.6908
  124    2.460   2141.76     0.0704     0.0025     0.0691     0.0246     0.0992     3.4817    39.3600     0.0599     0.7350
  125    2.480   2142.76     0.0697     0.0026     0.0693     0.0248     0.0988     3.6876    39.6800     0.0591     0.7519
  126    2.500   2143.76     0.0741     0.0020     0.0699     0.0250     0.1033     2.8068    40.0000     0.0633     0.7057
  127    2.520   2144.78     0.0732     0.0020     0.0708     0.0252     0.1029     2.7142    40.3200     0.0626     0.7288
  128    2.540   2145.76     0.0756     0.0015     0.0688     0.0254     0.1050     2.0285    40.6400     0.0644     0.6952
  129    2.560   2146.77     0.0788     0.0014     0.0533     0.0256     0.1031     1.7953    40.9600     0.0621     0.5193
  130    2.580   2147.73     0.0760     0.0017     0.0504     0.0258     0.0978     2.2759    41.2800     0.0565     0.4647
  131    2.600   2148.76     0.0781     0.0024     0.0476     0.0260     0.0988     3.0388    41.6000     0.0572     0.4098
  132    2.620   2149.77     0.0772     0.0026     0.0408     0.0262     0.0949     3.3563    41.9200     0.0530     0.2982
  133    2.640   2150.79     0.0783     0.0029     0.0402     0.0264     0.0952     3.6763    42.2400     0.0530     0.2628
  134    2.660   2151.79     0.0842     0.0025     0.0408     0.0266     0.1006     2.9950    42.5600     0.0580     0.2145
  135    2.680   2152.79     0.0961     0.0025     0.0430     0.0268     0.1150     2.6669    42.8800     0.0721     0.2535
  136    2.700   2153.79     0.1012     0.0028     0.0442     0.0270     0.1181     2.7518    43.2000     0.0749     0.1791
