

 Program UNIPLOT                         version 05.36.02
 _______________
 (c) Fugro Netherlands Marine, Nootdorp, The Netherlands


 ASCII representation of data plotted on a graph.

 This ASCII file presents data interpolated to values per fixed depth interval.
 The data are corrected for the depth-offset differences between the various 
 transducers in the penetrometer.

 The records at the start of penetration may include no values or anomalous
 values where a depth offset implies incomplete penetration of a particular
 sensor into the ground.

 The records at the end of penetration may include no values for data channels
 where the transducer did not reach this depth.

 The reference level for test values is (1) the ground surface for onshore tests and (2) the seafloor for nearshore and offshore tests.

 UNICAS data file          : CPT-2024.000                            
 Output using command file : PlotASCII.cmd

 ASCII file created at : date          :11-Dec-2021
                         time          :09:48:09
 Project number                        :20024805
 Date of testing                       :10-Dec-2021
 Location                              :Hong Kong Offshore Wind Farm Project
 Test name                             :CPT-2024
 Penetrometer                          :F7.5CKE2HAW2/B/3284
 Serial no                             :1701-3284

 Table description:
 Column ID                             :Parameter name
 ___________________________________________________________________________________
 Rec                                   :Record ID, Record ID [-]
 Depth                                 :Depth, Depth [m]
 Time                                  :Time, Time [s]
 Cone                                  :Cone Resistance, Cone Resistance [MPa]
 Friction                              :Sleeve Friction, Sleeve Friction [MPa]
 Pore 2                                :Porewater Pressure, Porewater Pressure at Shoulder [MPa]
 HydroPress                            :Hydrostatic Pressure, Hydrostatic Pressure [MPa]
 qt                                    :Total Cone Resistance, Total Cone Resistance [MPa]
 Fric_ratio                            :Friction Ratio, Friction Ratio [%]
 SigmaVert                             :Vertical stress, Vertical stress [kPa] as specified in ground model
 Qnet                                  :Net Cone Resistance, Net Cone Resistance [MPa], unit weight as specified in ground model
 Bq                                    :Porewater Pressure Ratio, Porewater Pressure Ratio [-], unit weight as specified in ground model


 Data table:
  Rec    Depth      Time       Cone   Friction     Pore 2 HydroPress         qt Fric_ratio  SigmaVert       Qnet         Bq
   No        m         s        MPa        MPa        MPa        MPa        MPa          %        kPa        MPa          -
    1    0.000   1578.69     0.0000                           0.0000     0.0000                0.0000     0.0000           
    2    0.020   1617.54     0.0226               -0.0002     0.0002     0.0228                0.3200     0.0225     0.0175
    3    0.040   1618.49     0.0239               -0.0010     0.0004     0.0236                0.6400     0.0230    -0.0484
    4    0.060   1619.43     0.0258     0.0002    -0.0015     0.0006     0.0252     0.9526     0.9600     0.0243    -0.0796
    5    0.080   1620.38     0.0268     0.0008    -0.0018     0.0008     0.0261     2.9446     1.2800     0.0248    -0.1050
    6    0.100   1621.34     0.0295     0.0009    -0.0006     0.0010     0.0292     3.2653     1.6000     0.0276    -0.0690
    7    0.120   1622.29     0.0280     0.0009    -0.0008     0.0012     0.0279     3.2894     1.9200     0.0259    -0.0591
    8    0.140   1623.24     0.0301     0.0010     0.0008     0.0014     0.0301     3.2565     2.2400     0.0278    -0.0513
    9    0.160   1624.19     0.0340     0.0012     0.0011     0.0016     0.0342     3.6957     2.5600     0.0316    -0.0355
   10    0.180   1625.15     0.0389     0.0017     0.0009     0.0018     0.0395     4.3578     2.8800     0.0367    -0.0104
   11    0.200   1626.08     0.0393     0.0018     0.0004     0.0020     0.0395     4.9999     3.2000     0.0363    -0.0466
   12    0.220   1627.03     0.0393     0.0017     0.0003     0.0022     0.0395     4.2331     3.5200     0.0360    -0.0473
   13    0.240   1628.01     0.0402     0.0017     0.0000     0.0024     0.0402     3.8443     3.8400     0.0364    -0.0676
   14    0.260   1628.94     0.0429     0.0018    -0.0001     0.0026     0.0429     4.1812     4.1600     0.0387    -0.0672
   15    0.280   1629.91     0.0390     0.0017    -0.0010     0.0028     0.0386     4.2528     4.4800     0.0341    -0.1057
   16    0.300   1630.85     0.0425     0.0017    -0.0006     0.0030     0.0422     4.1191     4.8000     0.0374    -0.1003
   17    0.320   1631.80     0.0442     0.0021    -0.0004     0.0032     0.0440     4.9188     5.1200     0.0389    -0.0911
   18    0.340   1632.78     0.0442     0.0021     0.0007     0.0034     0.0442     4.7883     5.4400     0.0388    -0.0835
   19    0.360   1633.73     0.0435     0.0021     0.0016     0.0036     0.0439     4.6634     5.7600     0.0382    -0.0683
   20    0.380   1634.69     0.0474     0.0019     0.0031     0.0038     0.0484     4.1061     6.0800     0.0423    -0.0323
   21    0.400   1635.63     0.0455     0.0020     0.0048     0.0040     0.0473     4.1197     6.4000     0.0409     0.0053
   22    0.420   1636.57     0.0451     0.0019     0.0060     0.0042     0.0475     3.9513     6.7200     0.0408     0.0379
   23    0.440   1637.51     0.0482     0.0020     0.0066     0.0044     0.0509     4.3524     7.0400     0.0438     0.0446
   24    0.460   1638.45     0.0457     0.0020     0.0076     0.0046     0.0488     4.5720     7.3600     0.0414     0.0662
   25    0.480   1639.40     0.0478     0.0019     0.0075     0.0048     0.0510     4.2093     7.6800     0.0433     0.0670
   26    0.500   1640.35     0.0507     0.0016     0.0080     0.0050     0.0540     3.1191     8.0000     0.0460     0.0614
   27    0.520   1641.31     0.0483     0.0018     0.0083     0.0052     0.0518     3.7947     8.3200     0.0435     0.0719
   28    0.540   1642.30     0.0521     0.0013     0.0088     0.0054     0.0557     2.4074     8.6400     0.0470     0.0674
   29    0.560   1643.26     0.0536     0.0018     0.0095     0.0056     0.0576     3.3508     8.9600     0.0487     0.0793
   30    0.580   1644.21     0.0531     0.0018     0.0102     0.0058     0.0573     3.5803     9.2800     0.0481     0.0883
   31    0.600   1645.13     0.0561     0.0018     0.0107     0.0060     0.0604     3.3358     9.6000     0.0508     0.0870
   32    0.620   1646.11     0.0564     0.0017     0.0109     0.0062     0.0610     2.9518     9.9200     0.0511     0.0907
   33    0.640   1647.07     0.0632     0.0013     0.0113     0.0064     0.0679     2.2197    10.2400     0.0577     0.0834
   34    0.660   1648.02     0.0595     0.0016     0.0121     0.0066     0.0644     2.6316    10.5600     0.0539     0.0976
   35    0.680   1648.99     0.0614     0.0016     0.0120     0.0068     0.0665     2.7061    10.8800     0.0556     0.0954
   36    0.700   1649.98     0.0636     0.0014     0.0118     0.0070     0.0686     2.2758    11.2000     0.0574     0.0853
   37    0.720   1650.94     0.0636     0.0017     0.0115     0.0072     0.0684     2.6401    11.5200     0.0569     0.0761
   38    0.740   1651.86     0.0676     0.0017     0.0114     0.0074     0.0724     2.5827    11.8400     0.0605     0.0651
   39    0.760   1652.84     0.0728     0.0016     0.0120     0.0076     0.0777     2.2128    12.1600     0.0656     0.0610
   40    0.780   1653.79     0.0688     0.0019     0.0127     0.0078     0.0739     2.6517    12.4800     0.0614     0.0697
   41    0.800   1654.74     0.0705     0.0018     0.0132     0.0080     0.0759     2.5325    12.8000     0.0631     0.0785
   42    0.820   1655.69     0.0730     0.0017     0.0144     0.0082     0.0789     2.2670    13.1200     0.0657     0.0884
   43    0.840   1656.65     0.0765     0.0018     0.0150     0.0084     0.0828     2.4187    13.4400     0.0694     0.0949
   44    0.860   1657.63     0.0752     0.0014     0.0152     0.0086     0.0815     1.9749    13.7600     0.0678     0.0949
   45    0.880   1658.59     0.0790     0.0014     0.0154     0.0088     0.0856     1.7961    14.0800     0.0715     0.0945
   46    0.900   1659.54     0.0808     0.0015     0.0149     0.0090     0.0871     1.8380    14.4000     0.0727     0.0828
   47    0.920   1660.49     0.0816     0.0019     0.0151     0.0092     0.0879     2.3829    14.7200     0.0732     0.0801
   48    0.940   1661.45     0.0821     0.0021     0.0159     0.0094     0.0886     2.4926    15.0400     0.0736     0.0833
   49    0.960   1662.40     0.0831     0.0020     0.0161     0.0096     0.0898     2.4984    15.3600     0.0745     0.0849
   50    0.980   1663.36     0.0827     0.0017     0.0175     0.0098     0.0898     2.1077    15.6800     0.0741     0.0954
   51    1.000   1664.31     0.0854     0.0015     0.0187     0.0100     0.0930     1.7833    16.0000     0.0770     0.1055
   52    1.020   1665.26     0.0863     0.0020     0.0199     0.0102     0.0945     2.2544    16.3200     0.0782     0.1190
   53    1.040   1666.22     0.0864     0.0019     0.0208     0.0104     0.0950     2.1423    16.6400     0.0784     0.1295
   54    1.060   1667.14     0.0911     0.0019     0.0216     0.0106     0.1001     2.1217    16.9600     0.0832     0.1309
   55    1.080   1668.09     0.0918     0.0016     0.0223     0.0108     0.1013     1.8408    17.2800     0.0840     0.1389
   56    1.100   1669.05     0.0928     0.0019     0.0201     0.0110     0.1014     2.0342    17.6000     0.0838     0.1125
   57    1.120   1670.00     0.0929     0.0012     0.0216     0.0112     0.1017     1.2316    17.9200     0.0838     0.1174
   58    1.140   1670.95     0.0946     0.0019     0.0227     0.0114     0.1040     2.0728    18.2400     0.0858     0.1287
   59    1.160   1671.95     0.0946     0.0015     0.0234     0.0116     0.1043     1.5985    18.5600     0.0857     0.1345
   60    1.180   1672.90     0.0964     0.0018     0.0251     0.0118     0.1066     1.8238    18.8800     0.0878     0.1442
   61    1.200   1673.86     0.0975     0.0022     0.0261     0.0120     0.1084     2.2228    19.2000     0.0892     0.1560
   62    1.220   1674.81     0.1072     0.0017     0.0283     0.0122     0.1188     1.6989    19.5200     0.0993     0.1550
   63    1.240   1675.77     0.1249     0.0017     0.0298     0.0124     0.1371     1.3968    19.8400     0.1173     0.1432
   64    1.260   1676.73     0.1387     0.0030     0.0192     0.0126     0.1514     2.3510    20.1600     0.1313     0.1343
   65    1.280   1677.68     0.1581     0.0039     0.0154     0.0128     0.1659     2.5605    20.4800     0.1454     0.0397
   66    1.300   1678.63     0.1561     0.0051     0.0111     0.0130     0.1620     3.1779    20.8000     0.1412     0.0079
   67    1.320   1679.57     0.2647     0.0068     0.0055     0.0132     0.2674     3.5389    21.1200     0.2463    -0.0272
   68    1.340   1680.54     0.4391     0.0074     0.0052     0.0134     0.4412     1.8964    21.4400     0.4197    -0.0205
   69    1.360   1681.51     0.5191     0.0054     0.0044     0.0136     0.5213     1.0655    21.7600     0.4995    -0.0168
   70    1.380   1682.47     0.4876     0.0040    -0.0631     0.0138     0.4760     0.7713    22.0800     0.4539    -0.0973
   71    1.400   1683.41     0.3828     0.0031    -0.1079     0.0140     0.3408     0.7276    22.4000     0.3184    -0.3664
   72    1.420   1684.37     0.2766     0.0025    -0.0740     0.0142     0.2394     0.7797    22.7200     0.2167    -0.4755
   73    1.440   1685.33     0.1932     0.0026    -0.0401     0.0144     0.1721     1.2153    23.0400     0.1491    -0.4317
   74    1.460   1686.28     0.1496     0.0018    -0.0181     0.0146     0.1388     1.1291    23.3600     0.1154    -0.3493
   75    1.480   1687.24     0.1323     0.0018     0.0002     0.0148     0.1302     1.3005    23.6800     0.1065    -0.1874
   76    1.500   1688.19     0.1287     0.0012     0.0098     0.0150     0.1317     0.9678    24.0000     0.1077    -0.0722
   77    1.520   1689.14     0.1287     0.0015     0.0141     0.0152     0.1345     1.1261    24.3200     0.1102    -0.0136
   78    1.540   1690.07     0.1243     0.0015     0.0188     0.0154     0.1311     1.2319    24.6400     0.1065     0.0067
   79    1.560   1691.04     0.1225     0.0016     0.0235     0.0156     0.1322     1.2970    24.9600     0.1072     0.0695
   80    1.580   1692.00     0.1254     0.0012     0.0265     0.0158     0.1358     0.9844    25.2800     0.1105     0.0801
   81    1.600   1692.95     0.1242     0.0018     0.0322     0.0160     0.1368     1.4352    25.6000     0.1112     0.1260
   82    1.620   1693.90     0.1196     0.0010     0.0370     0.0162     0.1348     0.8218    25.9200     0.1089     0.1823
   83    1.640   1694.88     0.1197     0.0015     0.0385     0.0164     0.1358     1.2589    26.2400     0.1095     0.1988
   84    1.660   1695.83     0.1242     0.0023     0.0406     0.0166     0.1410     1.9090    26.5600     0.1144     0.2034
   85    1.680   1696.78     0.1535     0.0029     0.0429     0.0168     0.1712     2.2725    26.8800     0.1443     0.1824
   86    1.700   1697.73     0.2849     0.0035     0.0454     0.0170     0.3035     1.5400    27.2000     0.2763     0.0990
   87    1.720   1698.70     0.3337     0.0032     0.0229     0.0172     0.3537     0.9686    27.5200     0.3262     0.0929
   88    1.740   1699.64     0.2345     0.0024     0.0139     0.0174     0.2387     0.9082    27.8400     0.2109    -0.0344
   89    1.760   1700.60     0.1939     0.0020     0.0247     0.0176     0.2031     0.9316    28.1600     0.1750     0.0258
   90    1.780   1701.55     0.1673     0.0025     0.0297     0.0178     0.1791     1.4424    28.4800     0.1506     0.0684
   91    1.800   1702.51     0.1594     0.0040     0.0381     0.0180     0.1738     2.5483    28.8000     0.1450     0.1126
   92    1.820   1703.45     0.1954     0.0044     0.0509     0.0182     0.2150     2.3432    29.1200     0.1859     0.1534
   93    1.840   1704.41     0.2175     0.0038     0.0411     0.0184     0.2382     1.9646    29.4400     0.2087     0.1472
   94    1.860   1705.37     0.1968     0.0041     0.0259     0.0186     0.2080     2.2701    29.7600     0.1782     0.0440
   95    1.880   1706.35     0.1753     0.0045     0.0298     0.0188     0.1872     2.5756    30.0800     0.1571     0.0604
   96    1.900   1707.30     0.1612     0.0047     0.0295     0.0190     0.1737     2.8079    30.4000     0.1433     0.0742
   97    1.920   1708.24     0.1420     0.0039     0.0379     0.0192     0.1564     2.7659    30.7200     0.1257     0.1205
   98    1.940   1709.74     0.1407     0.0033     0.0443     0.0194     0.1587     2.3089    31.0400     0.1276     0.1833
   99    1.960   1725.02     0.1324     0.0034     0.0488     0.0196     0.1523     2.4222    31.3600     0.1209     0.2340
  100    1.980   1740.31     0.1241     0.0033     0.0533     0.0198     0.1459     2.3285    31.6800     0.1142     0.2848
  101    2.000   1752.87     0.1157     0.0027     0.0589     0.0200     0.1395     2.1667    32.0000     0.1075     0.3415
  102    2.020   1753.83     0.1188     0.0021     0.0612     0.0202     0.1443     1.8559    32.3200     0.1119     0.3606
  103    2.040   1754.81     0.1160     0.0023     0.0625     0.0204     0.1422     1.9352    32.6400     0.1096     0.3841
  104    2.060   1755.76     0.1169     0.0034     0.0665     0.0206     0.1442     2.8931    32.9600     0.1112     0.3989
  105    2.080   1756.70     0.2892     0.0037     0.0709     0.0208     0.3185     2.4833    33.2800     0.2852     0.1814
  106    2.100   1757.67     1.1324     0.0045     0.0668     0.0210     1.1626     0.6609    33.6000     1.1290     0.0469
  107    2.120   1758.64     2.2720     0.0043     0.0034     0.0212     2.2839     0.2252    33.9200     2.2500     0.0036
  108    2.140   1759.59     2.3713     0.0049    -0.0248     0.0214     2.3613     0.1992    34.2400     2.3271    -0.0195
  109    2.160   1760.51     1.9908     0.0054    -0.0183     0.0216     1.9820     0.2500    34.5600     1.9475    -0.0218
  110    2.180   1761.47     1.6046     0.0065    -0.0075     0.0218     1.5996     0.3726    34.8800     1.5647    -0.0215
  111    2.200   1762.45     1.2007     0.0082     0.0042     0.0220     1.2010     0.6151    35.2000     1.1658    -0.0182
  112    2.220   1763.38     0.8690     0.0095     0.0126     0.0222     0.8731     0.9841    35.5200     0.8376    -0.0145
  113    2.240   1764.33     0.6209     0.0120     0.0174     0.0224     0.6276     1.7171    35.8400     0.5918    -0.0106
  114    2.260   1765.29     0.4455     0.0133     0.0218     0.0226     0.4541     2.6597    36.1600     0.4180    -0.0049
  115    2.280   1766.24     0.3215     0.0121     0.0254     0.0228     0.3317     3.3406    36.4800     0.2952     0.0054
  116    2.300   1767.19     0.2514     0.0107     0.0285     0.0230     0.2630     3.8873    36.8000     0.2262     0.0206
  117    2.320   1768.14     0.2227     0.0090     0.0320     0.0232     0.2360     3.8934    37.1200     0.1989     0.0424
  118    2.340   1769.13     0.1897     0.0070     0.0321     0.0234     0.2030     3.4119    37.4400     0.1656     0.0502
  119    2.360   1770.08     0.1560     0.0065     0.0366     0.0236     0.1702     3.9183    37.7600     0.1325     0.0778
  120    2.380   1771.03     0.1507     0.0064     0.0600     0.0238     0.1718     4.4014    38.0800     0.1337     0.1941
  121    2.400   1771.99     0.1662     0.0053     0.0763     0.0240     0.1970     3.3226    38.4000     0.1586     0.3115
  122    2.420   1772.92     0.1852     0.0045     0.0726     0.0242     0.2171     2.4896    38.7200     0.1784     0.2905
  123    2.440   1773.87     0.1836     0.0032     0.0448     0.0244     0.2057     1.7189    39.0400     0.1667     0.1697
  124    2.460   1774.82     0.1814     0.0028     0.0465     0.0246     0.2000     1.5286    39.3600     0.1606     0.1228
  125    2.480   1775.78     0.1518     0.0043     0.0577     0.0248     0.1746     2.6589    39.6800     0.1349     0.2182
  126    2.500   1776.72     0.1529     0.0042     0.0698     0.0250     0.1805     2.8882    40.0000     0.1405     0.2896
  127    2.520   1777.70     0.1573     0.0044     0.0730     0.0252     0.1881     2.8936    40.3200     0.1478     0.3253
  128    2.540   1778.66     0.1656     0.0043     0.0571     0.0254     0.1932     2.6004    40.6400     0.1526     0.2644
  129    2.560   1779.61     0.1597     0.0047     0.0510     0.0256     0.1808     2.8888    40.9600     0.1398     0.1747
  130    2.580   1780.56     0.1403     0.0044     0.0568     0.0258     0.1635     2.9365    41.2800     0.1222     0.2409
  131    2.600   1781.52     0.1294     0.0044     0.0635     0.0260     0.1549     3.4004    41.6000     0.1133     0.3053
  132    2.620   1782.47     0.1286     0.0029     0.0711     0.0262     0.1574     2.2616    41.9200     0.1155     0.3677
  133    2.640   1783.40     0.1323     0.0031     0.0742     0.0264     0.1632     2.3959    42.2400     0.1210     0.3893
  134    2.660   1784.34     0.1378     0.0037     0.0767     0.0266     0.1695     2.7647    42.5600     0.1270     0.3856
  135    2.680   1785.35     0.2078     0.0045     0.0797     0.0268     0.2410     2.5856    42.8800     0.1981     0.2649
  136    2.700   1786.31     0.2894     0.0041     0.0744     0.0270     0.3224     1.6090    43.2000     0.2792     0.1856
