

 Program UNIPLOT                         version 05.36.02
 _______________
 (c) Fugro Netherlands Marine, Nootdorp, The Netherlands


 ASCII representation of data plotted on a graph.

 This ASCII file presents data interpolated to values per fixed depth interval.
 The data are corrected for the depth-offset differences between the various 
 transducers in the penetrometer.

 The records at the start of penetration may include no values or anomalous
 values where a depth offset implies incomplete penetration of a particular
 sensor into the ground.

 The records at the end of penetration may include no values for data channels
 where the transducer did not reach this depth.

 The reference level for test values is (1) the ground surface for onshore tests and (2) the seafloor for nearshore and offshore tests.

 UNICAS data file          : CPT-2016.000                            
 Output using command file : PlotASCII.cmd

 ASCII file created at : date          :28-Apr-2022
                         time          :17:01:52
 Project number                        :20024805
 Date of testing                       :27-Apr-2022
 Location                              :Hong Kong Offshore Wind Farm Project
 Test name                             :CPT-2016
 Penetrometer                          :F7.5CKE2HAW2/B/3342
 Serial no                             :1701-3342

 Table description:
 Column ID                             :Parameter name
 ___________________________________________________________________________________
 Rec                                   :Record ID, Record ID [-]
 Depth                                 :Depth, Depth [m]
 Time                                  :Time, Time [s]
 Cone                                  :Cone Resistance, Cone Resistance [MPa]
 Friction                              :Sleeve Friction, Sleeve Friction [MPa]
 Pore 2                                :Porewater Pressure, Porewater Pressure at Shoulder [MPa]
 HydroPress                            :Hydrostatic Pressure, Hydrostatic Pressure [MPa]
 qt                                    :Total Cone Resistance, Total Cone Resistance [MPa]
 Fric_ratio                            :Friction Ratio, Friction Ratio [%]
 SigmaVert                             :Vertical stress, Vertical stress [kPa] as specified in ground model
 Qnet                                  :Net Cone Resistance, Net Cone Resistance [MPa], unit weight as specified in ground model
 Bq                                    :Porewater Pressure Ratio, Porewater Pressure Ratio [-], unit weight as specified in ground model


 Data table:
  Rec    Depth      Time       Cone   Friction     Pore 2 HydroPress         qt Fric_ratio  SigmaVert       Qnet         Bq
   No        m         s        MPa        MPa        MPa        MPa        MPa          %        kPa        MPa          -
    1    0.000   1504.28     0.0000                           0.0000     0.0000                0.0000     0.0000           
    2    0.020   1505.24     0.0021                0.0002     0.0002     0.0021                0.3200     0.0018    -0.0328
    3    0.040   1506.23     0.0053                0.0004     0.0004     0.0054                0.6400     0.0047    -0.0364
    4    0.060   1507.24     0.0038     0.0005     0.0007     0.0006     0.0040    15.8579     0.9600     0.0031     0.0163
    5    0.080   1508.21     0.0059     0.0004     0.0007     0.0008     0.0062     8.5016     1.2800     0.0049    -0.0166
    6    0.100   1509.17     0.0059     0.0006     0.0008     0.0010     0.0062    14.4523     1.6000     0.0046    -0.0681
    7    0.120   1510.16     0.0089     0.0007     0.0009     0.0012     0.0093    12.3115     1.9200     0.0074    -0.0390
    8    0.140   1511.14     0.0086     0.0008     0.0012     0.0014     0.0090    10.1707     2.2400     0.0068    -0.0565
    9    0.160   1512.10     0.0077     0.0007     0.0019     0.0016     0.0084    10.2805     2.5600     0.0059    -0.0018
   10    0.180   1513.08     0.0073     0.0006     0.0023     0.0018     0.0082    10.1877     2.8800     0.0053     0.0756
   11    0.200   1514.04     0.0115     0.0007     0.0027     0.0020     0.0126     5.7293     3.2000     0.0094     0.0727
   12    0.220   1516.90     0.0088     0.0012     0.0028     0.0022     0.0100    14.6663     3.5200     0.0065     0.0930
   13    0.240   1520.40     0.0100     0.0012     0.0028     0.0024     0.0112    15.3769     3.8400     0.0074     0.0629
   14    0.260   1523.49     0.0111     0.0010     0.0032     0.0026     0.0124     9.3540     4.1600     0.0082     0.0492
   15    0.280   1524.48     0.0114     0.0013     0.0035     0.0028     0.0128    13.3685     4.4800     0.0083     0.0568
   16    0.300   1525.45     0.0142     0.0015     0.0038     0.0030     0.0156    10.9701     4.8000     0.0108     0.0363
   17    0.320   1526.46     0.0152     0.0012     0.0045     0.0032     0.0170     7.3358     5.1200     0.0119     0.0953
   18    0.340   1527.41     0.0139     0.0017     0.0044     0.0034     0.0158    12.6637     5.4400     0.0103     0.1038
   19    0.360   1528.37     0.0169     0.0013     0.0031     0.0036     0.0185     7.9349     5.7600     0.0127     0.0168
   20    0.380   1529.36     0.0174     0.0015     0.0027     0.0038     0.0185     8.4823     6.0800     0.0124    -0.1006
   21    0.400   1530.36     0.0165     0.0012     0.0036     0.0040     0.0179     7.6685     6.4000     0.0115    -0.0451
   22    0.420   1531.37     0.0166     0.0012     0.0052     0.0042     0.0186     7.9217     6.7200     0.0118     0.0362
   23    0.440   1532.33     0.0153     0.0014     0.0058     0.0044     0.0176     8.3026     7.0400     0.0106     0.1151
   24    0.460   1533.32     0.0177     0.0014     0.0064     0.0046     0.0203     8.8454     7.3600     0.0130     0.1367
   25    0.480   1534.33     0.0159     0.0012     0.0067     0.0048     0.0186     7.2806     7.6800     0.0110     0.1590
   26    0.500   1535.27     0.0147     0.0016     0.0071     0.0050     0.0176    10.0691     8.0000     0.0096     0.2196
   27    0.520   1536.27     0.0196     0.0017     0.0065     0.0052     0.0225     8.7738     8.3200     0.0141     0.1121
   28    0.540   1537.23     0.0197     0.0018     0.0060     0.0054     0.0222     8.9926     8.6400     0.0136     0.0481
   29    0.560   1538.19     0.0191     0.0019     0.0059     0.0056     0.0216    11.0932     8.9600     0.0126     0.0348
   30    0.580   1539.20     0.0207     0.0020     0.0058     0.0058     0.0232    10.5074     9.2800     0.0139     0.0121
   31    0.600   1540.16     0.0195     0.0021     0.0039     0.0060     0.0214    10.8848     9.6000     0.0118    -0.1295
   32    0.620   1541.15     0.0212     0.0023     0.0045     0.0062     0.0229    11.8733     9.9200     0.0130    -0.1816
   33    0.640   1542.11     0.0189     0.0024     0.0058     0.0064     0.0211    12.9341    10.2400     0.0109    -0.0877
   34    0.660   1543.07     0.0184     0.0026     0.0057     0.0066     0.0209    13.9628    10.5600     0.0103    -0.0725
   35    0.680   1544.03     0.0181     0.0025     0.0064     0.0068     0.0208    13.0489    10.8800     0.0099    -0.0552
   36    0.700   1545.07     0.0172     0.0026     0.0069     0.0070     0.0200    15.2168    11.2000     0.0088    -0.0329
   37    0.720   1546.05     0.0172     0.0026     0.0067     0.0072     0.0201    13.7517    11.5200     0.0086    -0.0445
   38    0.740   1547.01     0.0157     0.0024     0.0068     0.0074     0.0185    14.5316    11.8400     0.0067    -0.1200
   39    0.760   1548.02     0.0177     0.0025     0.0081     0.0076     0.0210    14.8412    12.1600     0.0089     0.0379
   40    0.780   1548.98     0.0166     0.0024     0.0095     0.0078     0.0203    14.4638    12.4800     0.0079     0.1529
   41    0.800   1549.94     0.0196     0.0027     0.0094     0.0080     0.0236    13.6657    12.8000     0.0108     0.1418
   42    0.820   1550.90     0.0188     0.0026     0.0062     0.0082     0.0218    14.0418    13.1200     0.0087    -0.1340
   43    0.840   1551.91     0.0177     0.0028     0.0039     0.0084     0.0197    16.5041    13.4400     0.0062    -0.6104
   44    0.860   1552.88     0.0150     0.0029     0.0059     0.0086     0.0170    18.8776    13.7600     0.0032    -1.1756
   45    0.880   1553.88     0.0161     0.0029     0.0088     0.0088     0.0195    18.0076    14.0800     0.0054    -0.1400
   46    0.900   1554.88     0.0149     0.0030     0.0100     0.0090     0.0189    19.5821    14.4000     0.0045     0.1492
   47    0.920   1555.88     0.0121     0.0032     0.0111     0.0092     0.0166    24.5263    14.7200     0.0018     0.7892
   48    0.940   1556.84     0.0149     0.0031     0.0116     0.0094     0.0195    22.7274    15.0400     0.0045     0.3936
   49    0.960   1557.80     0.0098     0.0034     0.0122     0.0096     0.0149    31.8626    15.3600    -0.0005    -4.1647
   50    0.980   1558.77     0.0111     0.0029     0.0128     0.0098     0.0164    26.7793    15.6800     0.0007     4.6514
   51    1.000   1559.77     0.0094     0.0033     0.0132     0.0100     0.0149    32.7767    16.0000    -0.0011    -2.1360
   52    1.020   1560.73     0.0066     0.0031     0.0130     0.0102     0.0120    42.3572    16.3200    -0.0043    -0.7843
   53    1.040   1561.74     0.0097     0.0032     0.0134     0.0104     0.0152    30.5620    16.6400    -0.0014     0.2040
   54    1.060   1562.70     0.0055     0.0034     0.0147     0.0106     0.0115    58.1425    16.9600    -0.0055    -0.6533
   55    1.080   1563.71     0.0084     0.0029     0.0150     0.0108     0.0146    52.6773    17.2800    -0.0027    -1.7572
   56    1.100   1564.69     0.0085     0.0034     0.0151     0.0110     0.0146    39.4207    17.6000    -0.0030    -1.2846
   57    1.120   1565.65     0.0089     0.0031     0.0168     0.0112     0.0158    39.0546    17.9200    -0.0021    -3.0756
   58    1.140   1566.64     0.0054     0.0030     0.0166     0.0114     0.0125    43.0084    18.2400    -0.0058    -0.9786
   59    1.160   1567.63     0.0062     0.0031     0.0166     0.0116     0.0131    50.0273    18.5600    -0.0055    -0.9083
   60    1.180   1568.59     0.0054     0.0030     0.0170     0.0118     0.0124    77.0731    18.8800    -0.0065    -0.8067
   61    1.200   1569.56     0.0042     0.0033     0.0181     0.0120     0.0115    48.4325    19.2000    -0.0077    -0.7771
   62    1.220   1570.53     0.0034     0.0029     0.0184     0.0122     0.0111   119.1417    19.5200    -0.0084    -0.7311
   63    1.240   1571.53     0.0044     0.0033     0.0189     0.0124     0.0123    68.0473    19.8400    -0.0076    -0.8347
   64    1.260   1576.08     0.0034     0.0028     0.0181     0.0126     0.0112    70.8395    20.1600    -0.0090    -0.6656
   65    1.280   1581.88     0.0028     0.0028     0.0175     0.0128     0.0101    95.0453    20.4800    -0.0104    -0.4545
   66    1.300   1582.91     0.0028     0.0030     0.0197     0.0130     0.0107   131.3789    20.8000    -0.0101    -0.5954
   67    1.320   1583.90     0.0041     0.0029     0.0213     0.0132     0.0129    80.0055    21.1200    -0.0082    -0.9748
   68    1.340   1584.85     0.0015     0.0028     0.0225     0.0134     0.0108   205.4019    21.4400    -0.0106    -0.8481
   69    1.360   1585.82     0.0054     0.0029     0.0235     0.0136     0.0152    63.9295    21.7600    -0.0066    -1.4775
   70    1.380   1586.80     0.0024     0.0031     0.0236     0.0138     0.0123   103.5955    22.0800    -0.0098    -1.0002
   71    1.400   1587.81     0.0033     0.0031     0.0235     0.0140     0.0132    77.8410    22.4000    -0.0092    -1.0508
   72    1.420   1588.79     0.0070     0.0029     0.0237     0.0142     0.0170    46.5316    22.7200    -0.0057    -1.6736
   73    1.440   1589.80     0.0060     0.0029     0.0245     0.0144     0.0161    50.1221    23.0400    -0.0069    -1.4206
   74    1.460   1590.76     0.0079     0.0028     0.0255     0.0146     0.0185    37.9373    23.3600    -0.0048    -2.2517
   75    1.480   1591.77     0.0062     0.0027     0.0262     0.0148     0.0171    35.0368    23.6800    -0.0066    -1.7228
   76    1.500   1592.72     0.0090     0.0026     0.0268     0.0150     0.0201    29.4929    24.0000    -0.0039    -2.9053
   77    1.520   1593.72     0.0117     0.0027     0.0281     0.0152     0.0233    25.6524    24.3200    -0.0011   -17.9148
   78    1.540   1594.68     0.0129     0.0028     0.0279     0.0154     0.0247    21.8118    24.6400     0.0000           
   79    1.560   1595.68     0.0160     0.0025     0.0277     0.0156     0.0276    18.0772    24.9600     0.0027     7.5110
   80    1.580   1596.65     0.0161     0.0030     0.0273     0.0158     0.0276    21.2175    25.2800     0.0023    15.4250
   81    1.600   1597.61     0.0212     0.0025     0.0272     0.0160     0.0327    12.8742    25.6000     0.0071     1.6466
   82    1.620   1607.99     0.0229     0.0027     0.0253     0.0162     0.0338    12.5588    25.9200     0.0079     1.2398
   83    1.640   1620.77     0.0243     0.0027     0.0233     0.0164     0.0344    12.3118    26.2400     0.0081     0.9362
   84    1.660   1626.84     0.0289     0.0030     0.0246     0.0166     0.0389    10.9420    26.5600     0.0124     0.5967
   85    1.680   1627.85     0.0294     0.0029     0.0259     0.0168     0.0401     9.6101    26.8800     0.0132     0.6499
   86    1.700   1628.81     0.0309     0.0027     0.0266     0.0170     0.0419     9.3925    27.2000     0.0147     0.6351
   87    1.720   1629.82     0.0308     0.0030     0.0262     0.0172     0.0419     9.3290    27.5200     0.0144     0.6392
   88    1.740   1630.81     0.0292     0.0028     0.0259     0.0174     0.0402     8.6960    27.8400     0.0124     0.7197
   89    1.760   1631.77     0.0318     0.0027     0.0254     0.0176     0.0425     8.0194    28.1600     0.0144     0.5599
   90    1.780   1632.68     0.0317     0.0025     0.0256     0.0178     0.0422     8.0604    28.4800     0.0137     0.5295
   91    1.800   1633.52     0.0315     0.0028     0.0272     0.0180     0.0428     9.0335    28.8000     0.0140     0.6361
   92    1.820   1634.48     0.0323     0.0030     0.0290     0.0182     0.0445     9.0049    29.1200     0.0154     0.7070
   93    1.840   1635.49     0.0346     0.0026     0.0300     0.0184     0.0472     7.6647    29.4400     0.0177     0.6466
   94    1.860   1636.41     0.0356     0.0029     0.0311     0.0186     0.0484     8.1490    29.7600     0.0186     0.6400
   95    1.880   1637.44     0.0339     0.0024     0.0319     0.0188     0.0472     7.2000    30.0800     0.0171     0.7563
   96    1.900   1638.42     0.0380     0.0029     0.0321     0.0190     0.0513     7.4333    30.4000     0.0209     0.6125
   97    1.920   1639.39     0.0378     0.0026     0.0327     0.0192     0.0515     6.7572    30.7200     0.0207     0.6493
   98    1.940   1640.41     0.0367     0.0030     0.0331     0.0194     0.0506     8.4821    31.0400     0.0196     0.7025
   99    1.960   1641.37     0.0396     0.0028     0.0331     0.0196     0.0534     7.1372    31.3600     0.0221     0.6042
  100    1.980   1642.37     0.0389     0.0031     0.0334     0.0198     0.0528     8.0584    31.6800     0.0212     0.6320
  101    2.000   1643.37     0.0387     0.0031     0.0343     0.0200     0.0531     7.8902    32.0000     0.0211     0.6762
  102    2.020   1644.37     0.0385     0.0032     0.0356     0.0202     0.0530     8.4277    32.3200     0.0207     0.6969
  103    2.040   1645.29     0.0375     0.0034     0.0367     0.0204     0.0529     8.7354    32.6400     0.0202     0.8009
  104    2.060   1646.09     0.0412     0.0031     0.0377     0.0206     0.0569     7.6654    32.9600     0.0239     0.6971
  105    2.080   1646.89     0.0427     0.0031     0.0391     0.0208     0.0590     7.3782    33.2800     0.0257     0.7007
  106    2.100   1649.09     0.0445     0.0030     0.0404     0.0210     0.0616     6.7216    33.6000     0.0280     0.7057
  107    2.120   1654.27     0.0474     0.0033     0.0395     0.0212     0.0641     7.4969    33.9200     0.0302     0.6220
  108    2.140   1658.09     0.0467     0.0033     0.0395     0.0214     0.0633     6.8259    34.2400     0.0291     0.6274
  109    2.160   1659.08     0.0484     0.0031     0.0390     0.0216     0.0647     6.3900    34.5600     0.0301     0.5747
  110    2.180   1660.02     0.0467     0.0031     0.0392     0.0218     0.0631     6.4711    34.8800     0.0283     0.6159
  111    2.200   1661.01     0.0481     0.0033     0.0415     0.0220     0.0649     7.0586    35.2000     0.0297     0.6038
  112    2.220   1662.04     0.0494     0.0028     0.0450     0.0222     0.0679     5.5499    35.5200     0.0323     0.6725
  113    2.240   1663.03     0.0476     0.0027     0.0468     0.0224     0.0670     5.7292    35.8400     0.0311     0.7661
  114    2.260   1664.01     0.0500     0.0031     0.0465     0.0226     0.0695     6.1825    36.1600     0.0333     0.7128
  115    2.280   1665.01     0.0511     0.0030     0.0495     0.0228     0.0715     5.8551    36.4800     0.0351     0.7343
  116    2.300   1665.95     0.0543     0.0032     0.0484     0.0230     0.0750     5.8430    36.8000     0.0382     0.6860
  117    2.320   1666.91     0.0553     0.0030     0.0480     0.0232     0.0755     5.3134    37.1200     0.0383     0.6500
  118    2.340   1667.92     0.0559     0.0031     0.0473     0.0234     0.0758     5.5356    37.4400     0.0384     0.6230
  119    2.360   1668.91     0.0544     0.0030     0.0487     0.0236     0.0745     5.5381    37.7600     0.0367     0.6604
  120    2.380   1669.87     0.0554     0.0032     0.0499     0.0238     0.0761     5.7171    38.0800     0.0380     0.6734
  121    2.400   1670.94     0.0568     0.0032     0.0508     0.0240     0.0779     5.6620    38.4000     0.0395     0.6637
  122    2.420   1671.90     0.0553     0.0032     0.0533     0.0242     0.0775     5.7301    38.7200     0.0388     0.7402
  123    2.440   1672.88     0.0578     0.0031     0.0541     0.0244     0.0802     5.4011    39.0400     0.0412     0.7050
  124    2.460   1673.86     0.0581     0.0035     0.0562     0.0246     0.0814     5.9652    39.3600     0.0420     0.7344
  125    2.480   1674.85     0.0687     0.0037     0.0581     0.0248     0.0928     5.6103    39.6800     0.0531     0.6131
  126    2.500   1675.82     0.0751     0.0035     0.0572     0.0250     0.0995     4.7369    40.0000     0.0595     0.5548
  127    2.520   1676.79     0.0815     0.0034     0.0470     0.0252     0.1015     4.1550    40.3200     0.0611     0.3667
  128    2.540   1677.74     0.0748     0.0037     0.0485     0.0254     0.0947     4.7935    40.6400     0.0540     0.4080
  129    2.560   1678.69     0.0688     0.0036     0.0525     0.0256     0.0901     5.1805    40.9600     0.0492     0.5134
  130    2.580   1679.68     0.0628     0.0036     0.0576     0.0258     0.0863     5.4654    41.2800     0.0450     0.6735
  131    2.600   1680.71     0.0622     0.0032     0.0595     0.0260     0.0870     5.1157    41.6000     0.0454     0.7279
  132    2.620   1681.74     0.0640     0.0035     0.0605     0.0262     0.0893     5.3755    41.9200     0.0474     0.7206
  133    2.640   1682.71     0.0663     0.0034     0.0595     0.0264     0.0917     5.0823    42.2400     0.0494     0.6877
  134    2.660   1683.68     0.0669     0.0032     0.0578     0.0266     0.0913     4.6846    42.5600     0.0487     0.6487
  135    2.680   1684.60     0.0651     0.0033     0.0584     0.0268     0.0894     5.0668    42.8800     0.0465     0.6685
  136    2.700   1685.53     0.0679     0.0033     0.0593     0.0270     0.0927     4.9442    43.2000     0.0495     0.6460
