

 Program UNIPLOT                         version 05.36.02
 _______________
 (c) Fugro Netherlands Marine, Nootdorp, The Netherlands


 ASCII representation of data plotted on a graph.

 This ASCII file presents data interpolated to values per fixed depth interval.
 The data are corrected for the depth-offset differences between the various 
 transducers in the penetrometer.

 The records at the start of penetration may include no values or anomalous
 values where a depth offset implies incomplete penetration of a particular
 sensor into the ground.

 The records at the end of penetration may include no values for data channels
 where the transducer did not reach this depth.

 The reference level for test values is (1) the ground surface for onshore tests and (2) the seafloor for nearshore and offshore tests.

 UNICAS data file          : CPT-1007.003                            
 Output using command file : PlotASCII.cmd

 ASCII file created at : date          :08-Nov-2021
                         time          :15:11:31
 Project number                        :20024805                                                                                            
 Date of testing                       :06-Nov-2021                                                                                         
 Location                              :Hong Kong Offshore Wind Farm Project                                                                
 Test name                             :CPT-1007
 Penetrometer                          :F7.5CKE2HAW2/B/2711
 Serial no                             :1701-2711

 Table description:
 Column ID                             :Parameter name
 ___________________________________________________________________________________
 Rec                                   :Record ID, Record ID [-]
 Depth                                 :Depth, Depth [m]
 Time                                  :Time, Time [s]
 Cone                                  :Cone Resistance, Cone Resistance [MPa]
 Friction                              :Sleeve Friction, Sleeve Friction [MPa]
 Pore 2                                :Porewater Pressure, Porewater Pressure at Shoulder [MPa]
 HydroPress                            :Hydrostatic Pressure, Hydrostatic Pressure [MPa]
 qt                                    :Total Cone Resistance, Total Cone Resistance [MPa]
 Fric_ratio                            :Friction Ratio, Friction Ratio [%]
 SigmaVert                             :Vertical stress, Vertical stress [kPa] as specified in ground model
 Qnet                                  :Net Cone Resistance, Net Cone Resistance [MPa], unit weight as specified in ground model
 Bq                                    :Porewater Pressure Ratio, Porewater Pressure Ratio [-], unit weight as specified in ground model


 Data table:
  Rec    Depth      Time       Cone   Friction     Pore 2 HydroPress         qt Fric_ratio  SigmaVert       Qnet         Bq
   No        m         s        MPa        MPa        MPa        MPa        MPa          %        kPa        MPa          -
    1    0.000   1723.91     0.0000                           0.0000     0.0000                0.0000     0.0000           
    2    0.020   1724.90     0.0068                0.0004     0.0002     0.0069                0.3200     0.0066    -0.0156
    3    0.040   1725.91     0.0043                0.0006     0.0004     0.0048                0.6400     0.0041     0.1570
    4    0.060   1726.84     0.0093     0.0004     0.0012     0.0006     0.0096     5.0964     0.9600     0.0086     0.0185
    5    0.080   1727.87     0.0047     0.0004     0.0003     0.0008     0.0048     4.3166     1.2800     0.0036    -1.0220
    6    0.100   1728.90     0.0024     0.0005     0.0011     0.0010     0.0028     5.7421     1.6000     0.0012    -0.0726
    7    0.120   1729.86     0.0080     0.0006     0.0022     0.0012     0.0087     7.1676     1.9200     0.0068     0.0902
    8    0.140   1730.86     0.0086     0.0007     0.0022     0.0014     0.0095     8.0818     2.2400     0.0073     0.1013
    9    0.160   1731.87     0.0068     0.0004     0.0028     0.0016     0.0078     5.0792     2.5600     0.0053     0.1947
   10    0.180   1733.83     0.0116     0.0006     0.0029     0.0018     0.0128     5.6750     2.8800     0.0099     0.1097
   11    0.200   1737.18     0.0126     0.0010     0.0029     0.0020     0.0138     8.8394     3.2000     0.0106     0.0854
   12    0.220   1740.53     0.0136     0.0007     0.0029     0.0022     0.0149     6.4714     3.5200     0.0113     0.0611
   13    0.240   1742.47     0.0172     0.0010     0.0034     0.0024     0.0187     6.2417     3.8400     0.0148     0.0754
   14    0.260   1743.50     0.0161     0.0013     0.0031     0.0026     0.0173     8.3135     4.1600     0.0131     0.0279
   15    0.280   1744.51     0.0179     0.0015     0.0030     0.0028     0.0192     8.1726     4.4800     0.0147     0.0132
   16    0.300   1745.50     0.0181     0.0012     0.0033     0.0030     0.0194     6.5543     4.8000     0.0146     0.0122
   17    0.320   1746.51     0.0187     0.0012     0.0039     0.0032     0.0202     6.2927     5.1200     0.0151     0.0147
   18    0.340   1747.50     0.0149     0.0015     0.0020     0.0034     0.0166    10.2513     5.4400     0.0112     0.0499
   19    0.360   1748.46     0.0183     0.0015     0.0039     0.0036     0.0198     8.6083     5.7600     0.0140    -0.0117
   20    0.380   1749.45     0.0161     0.0013     0.0053     0.0038     0.0181     8.0203     6.0800     0.0120     0.0923
   21    0.400   1750.40     0.0156     0.0013     0.0057     0.0040     0.0180     7.9960     6.4000     0.0116     0.1481
   22    0.420   1751.42     0.0206     0.0017     0.0063     0.0042     0.0232     8.2478     6.7200     0.0165     0.1189
   23    0.440   1752.46     0.0154     0.0015     0.0062     0.0044     0.0181     8.8648     7.0400     0.0110     0.1775
   24    0.460   1753.45     0.0170     0.0015     0.0065     0.0046     0.0195     8.3286     7.3600     0.0122     0.1089
   25    0.480   1754.40     0.0174     0.0015     0.0076     0.0048     0.0206     8.4666     7.6800     0.0129     0.2080
   26    0.500   1755.40     0.0214     0.0016     0.0079     0.0050     0.0247     7.8276     8.0000     0.0167     0.1713
   27    0.520   1756.36     0.0184     0.0016     0.0079     0.0052     0.0217     8.5825     8.3200     0.0134     0.2015
   28    0.540   1757.34     0.0184     0.0013     0.0082     0.0054     0.0218     7.5835     8.6400     0.0132     0.1957
   29    0.560   1758.32     0.0157     0.0018     0.0071     0.0056     0.0185    11.1955     8.9600     0.0095     0.1030
   30    0.580   1759.35     0.0190     0.0018     0.0085     0.0058     0.0225     9.1899     9.2800     0.0132     0.1799
   31    0.600   1760.36     0.0197     0.0018     0.0099     0.0060     0.0238     8.7376     9.6000     0.0142     0.2610
   32    0.620   1761.34     0.0198     0.0016     0.0108     0.0062     0.0242     8.0873     9.9200     0.0142     0.2961
   33    0.640   1762.29     0.0225     0.0017     0.0111     0.0064     0.0271     7.7857    10.2400     0.0168     0.2719
   34    0.660   1763.26     0.0235     0.0016     0.0115     0.0066     0.0284     6.6692    10.5600     0.0178     0.2793
   35    0.680   1764.28     0.0253     0.0018     0.0107     0.0068     0.0301     7.4059    10.8800     0.0192     0.2334
   36    0.700   1765.29     0.0223     0.0017     0.0110     0.0070     0.0268     7.5644    11.2000     0.0156     0.2363
   37    0.720   1766.28     0.0220     0.0019     0.0112     0.0072     0.0267     8.6537    11.5200     0.0152     0.2640
   38    0.740   1767.29     0.0233     0.0018     0.0119     0.0074     0.0283     7.5754    11.8400     0.0164     0.2661
   39    0.760   1768.28     0.0231     0.0019     0.0125     0.0076     0.0282     8.0079    12.1600     0.0160     0.2863
   40    0.780   1769.25     0.0234     0.0020     0.0126     0.0078     0.0288     8.2362    12.4800     0.0163     0.3103
   41    0.800   1770.20     0.0245     0.0022     0.0128     0.0080     0.0297     9.2902    12.8000     0.0169     0.2625
   42    0.820   1771.19     0.0282     0.0018     0.0133     0.0082     0.0337     6.0101    13.1200     0.0205     0.2296
   43    0.840   1772.23     0.0297     0.0019     0.0150     0.0084     0.0357     7.1065    13.4400     0.0223     0.2727
   44    0.860   1773.21     0.0307     0.0020     0.0140     0.0086     0.0370     6.5960    13.7600     0.0232     0.2738
   45    0.880   1774.18     0.0358     0.0023     0.0132     0.0088     0.0413     6.5596    14.0800     0.0272     0.1617
   46    0.900   1775.16     0.0338     0.0026     0.0119     0.0090     0.0391     7.1544    14.4000     0.0247     0.1425
   47    0.920   1776.15     0.0320     0.0027     0.0131     0.0092     0.0376     8.6298    14.7200     0.0229     0.1862
   48    0.940   1777.10     0.0337     0.0026     0.0136     0.0094     0.0391     7.4808    15.0400     0.0241     0.1515
   49    0.960   1778.11     0.0317     0.0022     0.0152     0.0096     0.0377     6.6657    15.3600     0.0224     0.2131
   50    0.980   1779.11     0.0294     0.0023     0.0173     0.0098     0.0363     7.8759    15.6800     0.0207     0.3258
   51    1.000   1780.09     0.0257     0.0022     0.0184     0.0100     0.0333     8.5330    16.0000     0.0173     0.4779
   52    1.020   1781.10     0.0264     0.0020     0.0170     0.0102     0.0336     7.3304    16.3200     0.0173     0.4081
   53    1.040   1782.08     0.0287     0.0018     0.0172     0.0104     0.0358     6.2170    16.6400     0.0191     0.3385
   54    1.060   1783.07     0.0282     0.0018     0.0170     0.0106     0.0353     6.3597    16.9600     0.0183     0.3463
   55    1.080   1784.04     0.0287     0.0020     0.0177     0.0108     0.0355     7.4471    17.2800     0.0182     0.3040
   56    1.100   1785.07     0.0263     0.0022     0.0177     0.0110     0.0338     8.6195    17.6000     0.0162     0.4291
   57    1.120   1786.08     0.0304     0.0022     0.0177     0.0112     0.0377     7.1553    17.9200     0.0198     0.3170
   58    1.140   1787.06     0.0288     0.0024     0.0189     0.0114     0.0365     8.3281    18.2400     0.0182     0.3755
   59    1.160   1788.04     0.0298     0.0020     0.0199     0.0116     0.0380     6.7191    18.5600     0.0194     0.4113
   60    1.180   1799.35     0.0294     0.0024     0.0197     0.0118     0.0377     7.7332    18.8800     0.0189     0.4311
   61    1.200   1818.42     0.0271     0.0023     0.0194     0.0120     0.0353     7.5220    19.2000     0.0161     0.4708
   62    1.220   1828.47     0.0267     0.0022     0.0215     0.0122     0.0353     8.3412    19.5200     0.0158     0.5194
   63    1.240   1829.50     0.0262     0.0018     0.0230     0.0124     0.0356     7.0794    19.8400     0.0158     0.6398
   64    1.260   1830.50     0.0293     0.0020     0.0233     0.0126     0.0392     6.8483    20.1600     0.0191     0.5795
   65    1.280   1831.46     0.0328     0.0018     0.0245     0.0128     0.0431     5.4994    20.4800     0.0226     0.5219
   66    1.300   1832.44     0.0279     0.0020     0.0252     0.0130     0.0385     6.7940    20.8000     0.0177     0.6983
   67    1.320   1833.41     0.0326     0.0018     0.0238     0.0132     0.0429     5.5279    21.1200     0.0217     0.5148
   68    1.340   1834.40     0.0328     0.0019     0.0236     0.0134     0.0427     6.0665    21.4400     0.0213     0.4807
   69    1.360   1835.41     0.0352     0.0020     0.0245     0.0136     0.0454     5.8956    21.7600     0.0236     0.4510
   70    1.380   1836.40     0.0317     0.0021     0.0240     0.0138     0.0410     6.7877    22.0800     0.0189     0.4445
   71    1.400   1837.37     0.0300     0.0020     0.0242     0.0140     0.0398     6.4222    22.4000     0.0174     0.5301
   72    1.420   1838.33     0.0362     0.0019     0.0258     0.0142     0.0470     5.5081    22.7200     0.0243     0.4774
   73    1.440   1839.32     0.0382     0.0018     0.0272     0.0144     0.0493     4.6185    23.0400     0.0262     0.4595
   74    1.460   1840.33     0.0412     0.0021     0.0272     0.0146     0.0526     5.2356    23.3600     0.0292     0.4319
   75    1.480   1841.26     0.0462     0.0020     0.0287     0.0148     0.0579     4.4100    23.6800     0.0343     0.3875
   76    1.500   1842.27     0.0497     0.0022     0.0304     0.0150     0.0623     4.5272    24.0000     0.0383     0.3906
   77    1.520   1843.24     0.0474     0.0022     0.0295     0.0152     0.0600     4.7370    24.3200     0.0357     0.4183
   78    1.540   1844.24     0.0472     0.0021     0.0293     0.0154     0.0595     4.7145    24.6400     0.0348     0.3986
   79    1.560   1845.24     0.0487     0.0023     0.0317     0.0156     0.0615     4.6645    24.9600     0.0365     0.4081
   80    1.580   1846.21     0.0529     0.0022     0.0355     0.0158     0.0674     4.2640    25.2800     0.0422     0.4440
   81    1.600   1847.20     0.0555     0.0022     0.0375     0.0160     0.0710     4.0160    25.6000     0.0454     0.4618
   82    1.620   1848.15     0.0589     0.0024     0.0343     0.0162     0.0739     4.1505    25.9200     0.0480     0.4052
   83    1.640   1849.16     0.0621     0.0026     0.0321     0.0164     0.0755     4.1916    26.2400     0.0492     0.3140
   84    1.660   1850.13     0.0607     0.0028     0.0296     0.0166     0.0738     4.5191    26.5600     0.0473     0.3085
   85    1.680   1851.07     0.0597     0.0027     0.0287     0.0168     0.0720     4.4841    26.8800     0.0452     0.2799
   86    1.700   1852.10     0.0631     0.0028     0.0315     0.0170     0.0759     4.3725    27.2000     0.0487     0.2784
   87    1.720   1853.10     0.0576     0.0024     0.0328     0.0172     0.0715     4.0827    27.5200     0.0440     0.3640
   88    1.740   1854.08     0.0544     0.0021     0.0351     0.0174     0.0689     3.9096    27.8400     0.0410     0.4170
   89    1.760   1855.06     0.0577     0.0023     0.0352     0.0176     0.0728     3.9699    28.1600     0.0446     0.4115
   90    1.780   1856.04     0.0559     0.0021     0.0379     0.0178     0.0715     3.8061    28.4800     0.0430     0.4503
   91    1.800   1857.07     0.0543     0.0022     0.0395     0.0180     0.0712     4.0959    28.8000     0.0424     0.5248
   92    1.820   1858.03     0.0576     0.0023     0.0387     0.0182     0.0739     4.1727    29.1200     0.0448     0.4627
   93    1.840   1859.02     0.0613     0.0026     0.0411     0.0184     0.0784     4.2856    29.4400     0.0490     0.4562
   94    1.860   1859.99     0.0591     0.0023     0.0424     0.0186     0.0770     3.9303    29.7600     0.0472     0.5094
   95    1.880   1860.97     0.0596     0.0022     0.0423     0.0188     0.0775     3.7045    30.0800     0.0474     0.5003
   96    1.900   1861.93     0.0596     0.0025     0.0440     0.0190     0.0776     4.0039    30.4000     0.0472     0.5051
   97    1.920   1862.93     0.0661     0.0026     0.0477     0.0192     0.0856     4.0150    30.7200     0.0549     0.4971
   98    1.940   1863.91     0.0685     0.0025     0.0479     0.0194     0.0887     3.6501    31.0400     0.0576     0.4986
   99    1.960   1864.88     0.0651     0.0025     0.0479     0.0196     0.0852     3.7918    31.3600     0.0538     0.5250
  100    1.980   1865.87     0.0671     0.0027     0.0498     0.0198     0.0878     4.0243    31.6800     0.0561     0.5251
  101    2.000   1866.84     0.0685     0.0025     0.0509     0.0200     0.0897     3.6557    32.0000     0.0577     0.5276
  102    2.020   1867.83     0.0669     0.0027     0.0500     0.0202     0.0882     4.0295    32.3200     0.0559     0.5438
  103    2.040   1868.82     0.0653     0.0031     0.0510     0.0204     0.0865     4.7565    32.6400     0.0539     0.5589
  104    2.060   1869.79     0.0644     0.0029     0.0496     0.0206     0.0854     4.4259    32.9600     0.0525     0.5621
  105    2.080   1870.74     0.0604     0.0027     0.0493     0.0208     0.0812     4.3843    33.2800     0.0479     0.5976
  106    2.100   1871.72     0.0607     0.0022     0.0452     0.0210     0.0810     3.6328    33.6000     0.0474     0.5757
  107    2.120   1872.74     0.0664     0.0026     0.0447     0.0212     0.0840     3.7016    33.9200     0.0500     0.4143
  108    2.140   1873.74     0.0574     0.0028     0.0453     0.0214     0.0766     4.9201    34.2400     0.0423     0.5734
  109    2.160   1874.69     0.0564     0.0029     0.0429     0.0216     0.0746     5.0907    34.5600     0.0400     0.5453
  110    2.180   1875.67     0.0620     0.0026     0.0509     0.0218     0.0817     4.3051    34.8800     0.0469     0.5374
  111    2.200   1876.63     0.0734     0.0031     0.0536     0.0220     0.0953     4.5732    35.2000     0.0601     0.5064
  112    2.220   1877.62     0.0874     0.0034     0.0503     0.0222     0.1099     4.0502    35.5200     0.0744     0.4220
  113    2.240   1878.63     0.0986     0.0035     0.0444     0.0224     0.1180     3.6420    35.8400     0.0821     0.2902
  114    2.260   1879.64     0.1141     0.0043     0.0452     0.0226     0.1321     3.7691    36.1600     0.0960     0.2112
  115    2.280   1880.63     0.1262     0.0045     0.0470     0.0228     0.1453     3.6242    36.4800     0.1088     0.2075
  116    2.300   1881.59     0.1354     0.0052     0.0475     0.0230     0.1549     3.8650    36.8000     0.1181     0.1995
  117    2.320   1882.58     0.1416     0.0056     0.0430     0.0232     0.1593     4.0004    37.1200     0.1222     0.1545
  118    2.340   1883.53     0.1490     0.0052     0.0351     0.0234     0.1659     3.5109    37.4400     0.1285     0.1313
  119    2.360   1884.51     0.1529     0.0051     0.0376     0.0236     0.1684     3.3135    37.7600     0.1306     0.1018
  120    2.380   1885.54     0.1458     0.0049     0.0434     0.0238     0.1633     3.3281    38.0800     0.1252     0.1431
  121    2.400   1886.51     0.1379     0.0053     0.0487     0.0240     0.1567     3.8014    38.4000     0.1183     0.1756
  122    2.420   1887.50     0.1337     0.0051     0.0488     0.0242     0.1554     3.7921    38.7200     0.1167     0.2359
  123    2.440   1888.47     0.1384     0.0056     0.0372     0.0244     0.1560     4.0607    39.0400     0.1170     0.1504
  124    2.460   1889.43     0.1485     0.0054     0.0319     0.0246     0.1624     3.6943    39.3600     0.1230     0.0690
  125    2.480   1890.39     0.1578     0.0055     0.0347     0.0248     0.1719     3.4926    39.6800     0.1322     0.0647
  126    2.500   1891.38     0.1588     0.0059     0.0349     0.0250     0.1732     3.7066    40.0000     0.1332     0.0695
  127    2.520   1892.41     0.1659     0.0060     0.0425     0.0252     0.1833     3.6414    40.3200     0.1430     0.1134
  128    2.540   1893.38     0.1621     0.0054     0.0385     0.0254     0.1791     3.3550    40.6400     0.1384     0.1089
  129    2.560   1894.37     0.1550     0.0054     0.0365     0.0256     0.1704     3.4765    40.9600     0.1294     0.0853
  130    2.580   1895.36     0.1513     0.0054     0.0389     0.0258     0.1671     3.4839    41.2800     0.1258     0.0929
  131    2.600   1896.28     0.1446     0.0054     0.0396     0.0260     0.1607     3.6889    41.6000     0.1191     0.1032
  132    2.620   1897.30     0.1342     0.0050     0.0528     0.0262     0.1549     3.6650    41.9200     0.1130     0.2035
  133    2.640   1898.27     0.1299     0.0044     0.0590     0.0264     0.1541     3.3660    42.2400     0.1119     0.2791
  134    2.660   1899.27     0.1285     0.0047     0.0621     0.0266     0.1540     3.5659    42.5600     0.1114     0.3055
