

 Program UNIPLOT                         version 05.36.02
 _______________
 (c) Fugro Netherlands Marine, Nootdorp, The Netherlands


 ASCII representation of data plotted on a graph.

 This ASCII file presents data interpolated to values per fixed depth interval.
 The data are corrected for the depth-offset differences between the various 
 transducers in the penetrometer.

 The records at the start of penetration may include no values or anomalous
 values where a depth offset implies incomplete penetration of a particular
 sensor into the ground.

 The records at the end of penetration may include no values for data channels
 where the transducer did not reach this depth.

 The reference level for test values is (1) the ground surface for onshore tests and (2) the seafloor for nearshore and offshore tests.

 UNICAS data file          : CPT-1028.000                            
 Output using command file : PlotASCII.cmd

 ASCII file created at : date          :19-Mar-2022
                         time          :10:32:03
 Project number                        :20024805
 Date of testing                       :18-Mar-2022
 Location                              :Hong Kong Offshore Wind Farm Project
 Test name                             :CPT-1028
 Penetrometer                          :F7.5CKE2HAW2/B/3342
 Serial no                             :1701-3342

 Table description:
 Column ID                             :Parameter name
 ___________________________________________________________________________________
 Rec                                   :Record ID, Record ID [-]
 Depth                                 :Depth, Depth [m]
 Time                                  :Time, Time [s]
 Cone                                  :Cone Resistance, Cone Resistance [MPa]
 Friction                              :Sleeve Friction, Sleeve Friction [MPa]
 Pore 2                                :Porewater Pressure, Porewater Pressure at Shoulder [MPa]
 HydroPress                            :Hydrostatic Pressure, Hydrostatic Pressure [MPa]
 qt                                    :Total Cone Resistance, Total Cone Resistance [MPa]
 Fric_ratio                            :Friction Ratio, Friction Ratio [%]
 SigmaVert                             :Vertical stress, Vertical stress [kPa] as specified in ground model
 Qnet                                  :Net Cone Resistance, Net Cone Resistance [MPa], unit weight as specified in ground model
 Bq                                    :Porewater Pressure Ratio, Porewater Pressure Ratio [-], unit weight as specified in ground model


 Data table:
  Rec    Depth      Time       Cone   Friction     Pore 2 HydroPress         qt Fric_ratio  SigmaVert       Qnet         Bq
   No        m         s        MPa        MPa        MPa        MPa        MPa          %        kPa        MPa          -
    1    0.000   1709.16     0.0000                           0.0000     0.0000                0.0000     0.0000           
    2    0.020   1710.11     0.0004                0.0000     0.0002     0.0004                0.3200     0.0001           
    3    0.040   1711.07    -0.0004                0.0000     0.0004    -0.0004                0.6400    -0.0010     0.4776
    4    0.060   1712.06     0.0003                0.0002     0.0006     0.0004                0.9600    -0.0006     0.8639
    5    0.080   1713.02     0.0014     0.0002     0.0005     0.0008     0.0015    25.6854     1.2800     0.0002     0.0100
    6    0.100   1713.92     0.0030     0.0002     0.0010     0.0010     0.0034     9.4504     1.6000     0.0018    -0.0998
    7    0.120   1714.87     0.0035     0.0003     0.0014     0.0012     0.0040     8.3003     1.9200     0.0021     0.0312
    8    0.140   1715.82     0.0043     0.0003     0.0018     0.0014     0.0050     7.4108     2.2400     0.0027     0.1009
    9    0.160   1716.78     0.0047     0.0005     0.0013     0.0016     0.0053    10.1026     2.5600     0.0027    -0.0531
   10    0.180   1717.73     0.0045     0.0005     0.0009     0.0018     0.0050    10.3414     2.8800     0.0021    -0.3638
   11    0.200   1718.72     0.0055     0.0006     0.0010     0.0020     0.0059    12.9711     3.2000     0.0027    -0.3862
   12    0.220   1719.68     0.0067     0.0007     0.0008     0.0022     0.0070    11.2456     3.5200     0.0035    -0.4059
   13    0.240   1720.64     0.0078     0.0007     0.0004     0.0024     0.0081     9.5654     3.8400     0.0043    -0.3976
   14    0.260   1721.59     0.0095     0.0007     0.0005     0.0026     0.0097     7.1967     4.1600     0.0055    -0.3859
   15    0.280   1722.53     0.0101     0.0008     0.0003     0.0028     0.0103     8.2385     4.4800     0.0058    -0.4093
   16    0.300   1723.48     0.0122     0.0010     0.0005     0.0030     0.0123     8.2091     4.8000     0.0075    -0.3641
   17    0.320   1724.43     0.0131     0.0011     0.0009     0.0032     0.0134     8.7653     5.1200     0.0083    -0.2846
   18    0.340   1725.38     0.0133     0.0013    -0.0007     0.0034     0.0133     9.4689     5.4400     0.0079    -0.4404
   19    0.360   1726.35     0.0124     0.0012    -0.0005     0.0036     0.0122     9.5941     5.7600     0.0064    -0.6453
   20    0.380   1727.27     0.0120     0.0012     0.0010     0.0038     0.0124     9.8006     6.0800     0.0063    -0.4487
   21    0.400   1728.22     0.0117     0.0012     0.0022     0.0040     0.0123    10.2907     6.4000     0.0059    -0.4004
   22    0.420   1729.17     0.0106     0.0012     0.0033     0.0042     0.0118    10.9155     6.7200     0.0051    -0.2742
   23    0.440   1730.13     0.0098     0.0011     0.0034     0.0044     0.0113    11.4712     7.0400     0.0042    -0.1900
   24    0.460   1731.08     0.0085     0.0009     0.0039     0.0046     0.0101    10.6622     7.3600     0.0027    -0.2951
   25    0.480   1732.03     0.0105     0.0009     0.0039     0.0048     0.0121     8.5459     7.6800     0.0044    -0.2328
   26    0.500   1732.96     0.0104     0.0010     0.0046     0.0050     0.0122     9.7528     8.0000     0.0042    -0.1746
   27    0.520   1733.94     0.0114     0.0011     0.0050     0.0052     0.0134     9.7388     8.3200     0.0051    -0.0618
   28    0.540   1734.89     0.0109     0.0012     0.0061     0.0054     0.0133    10.7954     8.6400     0.0047     0.0772
   29    0.560   1735.84     0.0119     0.0012     0.0064     0.0056     0.0146    10.4915     8.9600     0.0057     0.1429
   30    0.580   1736.79     0.0120     0.0011     0.0058     0.0058     0.0144     9.5767     9.2800     0.0051    -0.0139
   31    0.600   1737.73     0.0114     0.0012     0.0069     0.0060     0.0141    10.3326     9.6000     0.0045     0.0932
   32    0.620   1738.74     0.0109     0.0011     0.0074     0.0062     0.0141     9.8332     9.9200     0.0041     0.3388
   33    0.640   1739.65     0.0123     0.0011     0.0082     0.0064     0.0158     9.2453    10.2400     0.0055     0.3307
   34    0.660   1740.61     0.0150     0.0013     0.0092     0.0066     0.0186     9.0294    10.5600     0.0081     0.2626
   35    0.680   1741.56     0.0165     0.0013     0.0101     0.0068     0.0207     8.1207    10.8800     0.0098     0.3195
   36    0.700   1742.55     0.0175     0.0014     0.0106     0.0070     0.0219     7.5232    11.2000     0.0107     0.3260
   37    0.720   1743.50     0.0180     0.0015     0.0076     0.0072     0.0218     8.5619    11.5200     0.0103     0.1772
   38    0.740   1744.45     0.0186     0.0014     0.0055     0.0074     0.0210     7.3739    11.8400     0.0092    -0.1954
   39    0.760   1745.39     0.0183     0.0014     0.0070     0.0076     0.0211     7.7513    12.1600     0.0090    -0.0946
   40    0.780   1746.35     0.0180     0.0015     0.0082     0.0078     0.0212     8.2991    12.4800     0.0087    -0.0449
   41    0.800   1747.31     0.0189     0.0016     0.0096     0.0080     0.0227     8.9575    12.8000     0.0099     0.1182
   42    0.820   1748.26     0.0175     0.0017     0.0092     0.0082     0.0216     9.5670    13.1200     0.0085     0.1688
   43    0.840   1749.24     0.0165     0.0015     0.0098     0.0084     0.0207     8.9623    13.4400     0.0073     0.2072
   44    0.860   1750.19     0.0151     0.0015     0.0101     0.0086     0.0193     9.7257    13.7600     0.0055     0.2533
   45    0.880   1758.94     0.0131     0.0014     0.0099     0.0088     0.0173     9.7756    14.0800     0.0032     0.3000
   46    0.900   1775.79     0.0114     0.0012     0.0095     0.0090     0.0155     8.8019    14.4000     0.0011     0.2059
   47    0.920   1792.65     0.0098     0.0012     0.0091     0.0092     0.0136     8.8334    14.7200    -0.0011     0.1118
   48    0.940   1799.30     0.0089     0.0011     0.0103     0.0094     0.0132    12.5059    15.0400    -0.0018    -0.5535
   49    0.960   1800.24     0.0085     0.0010     0.0120     0.0096     0.0134    11.8173    15.3600    -0.0020    -1.0343
   50    0.980   1801.15     0.0091     0.0011     0.0125     0.0098     0.0143    12.5386    15.6800    -0.0014    -1.7652
   51    1.000   1802.12     0.0150     0.0011     0.0132     0.0100     0.0203     8.8598    16.0000     0.0043     0.6126
   52    1.020   1803.15     0.0192     0.0010     0.0144     0.0102     0.0252     5.6751    16.3200     0.0088     0.4552
   53    1.040   1804.07     0.0219     0.0011     0.0159     0.0104     0.0285     5.2796    16.6400     0.0118     0.4505
   54    1.060   1805.02     0.0268     0.0012     0.0163     0.0106     0.0335     4.7636    16.9600     0.0166     0.3255
   55    1.080   1805.99     0.0304     0.0014     0.0170     0.0108     0.0374     4.7908    17.2800     0.0202     0.3022
   56    1.100   1806.94     0.0333     0.0015     0.0160     0.0110     0.0403     4.6736    17.6000     0.0227     0.2447
   57    1.120   1807.89     0.0352     0.0014     0.0122     0.0112     0.0410     4.1004    17.9200     0.0231     0.1161
   58    1.140   1808.85     0.0381     0.0016     0.0129     0.0114     0.0433     4.4663    18.2400     0.0251     0.0412
   59    1.160   1809.82     0.0410     0.0018     0.0130     0.0116     0.0465     4.5051    18.5600     0.0279     0.0539
   60    1.180   1810.76     0.0427     0.0021     0.0148     0.0118     0.0486     4.9838    18.8800     0.0297     0.0770
   61    1.200   1811.68     0.0429     0.0021     0.0140     0.0120     0.0491     4.8996    19.2000     0.0299     0.0967
   62    1.220   1812.66     0.0449     0.0021     0.0130     0.0122     0.0505     4.8275    19.5200     0.0310     0.0349
   63    1.240   1813.61     0.0447     0.0022     0.0142     0.0124     0.0501     4.9082    19.8400     0.0302     0.0117
   64    1.260   1814.57     0.0427     0.0024     0.0142     0.0126     0.0487     5.6212    20.1600     0.0285     0.0570
   65    1.280   1815.52     0.0411     0.0023     0.0163     0.0128     0.0477     5.4605    20.4800     0.0272     0.1064
   66    1.300   1816.48     0.0398     0.0023     0.0169     0.0130     0.0468     5.6168    20.8000     0.0260     0.1388
   67    1.320   1817.42     0.0395     0.0021     0.0179     0.0132     0.0468     5.1982    21.1200     0.0257     0.1630
   68    1.340   1818.40     0.0372     0.0019     0.0203     0.0134     0.0454     5.0085    21.4400     0.0240     0.2583
   69    1.360   1819.36     0.0358     0.0018     0.0224     0.0136     0.0449     4.9545    21.7600     0.0232     0.3565
   70    1.380   1820.31     0.0374     0.0018     0.0230     0.0138     0.0469     4.8311    22.0800     0.0248     0.3546
   71    1.400   1821.23     0.0395     0.0016     0.0243     0.0140     0.0496     4.1227    22.4000     0.0272     0.3742
   72    1.420   1822.18     0.0403     0.0016     0.0234     0.0142     0.0500     4.1741    22.7200     0.0273     0.3239
   73    1.440   1823.11     0.0436     0.0018     0.0235     0.0144     0.0535     4.3064    23.0400     0.0305     0.3024
   74    1.460   1824.07     0.0459     0.0019     0.0242     0.0146     0.0559     4.0889    23.3600     0.0326     0.2817
   75    1.480   1825.05     0.0459     0.0019     0.0262     0.0148     0.0565     4.0806    23.6800     0.0329     0.3240
   76    1.500   1826.00     0.0451     0.0019     0.0236     0.0150     0.0555     4.1480    24.0000     0.0315     0.3092
   77    1.520   1826.96     0.0462     0.0018     0.0224     0.0152     0.0557     3.9458    24.3200     0.0313     0.2373
   78    1.540   1827.91     0.0463     0.0019     0.0248     0.0154     0.0562     4.1413    24.6400     0.0316     0.2559
   79    1.560   1828.89     0.0466     0.0019     0.0264     0.0156     0.0577     4.0343    24.9600     0.0327     0.3266
   80    1.580   1829.79     0.0475     0.0019     0.0276     0.0158     0.0591     4.0258    25.2800     0.0338     0.3447
   81    1.600   1830.76     0.0467     0.0020     0.0262     0.0160     0.0580     4.2747    25.6000     0.0324     0.3354
   82    1.620   1831.70     0.0456     0.0020     0.0267     0.0162     0.0569     4.3891    25.9200     0.0310     0.3454
   83    1.640   1832.65     0.0439     0.0019     0.0296     0.0164     0.0559     4.1553    26.2400     0.0296     0.4076
   84    1.660   1833.63     0.0435     0.0018     0.0313     0.0166     0.0563     4.2142    26.5600     0.0297     0.4665
   85    1.680   1834.58     0.0447     0.0017     0.0339     0.0168     0.0585     3.8808    26.8800     0.0316     0.5108
   86    1.700   1835.54     0.0482     0.0020     0.0364     0.0170     0.0631     4.4089    27.2000     0.0359     0.5131
   87    1.720   1836.49     0.0560     0.0021     0.0373     0.0172     0.0717     4.0454    27.5200     0.0442     0.4595
   88    1.740   1837.44     0.0675     0.0022     0.0354     0.0174     0.0827     3.5357    27.8400     0.0548     0.3432
   89    1.760   1838.39     0.0758     0.0024     0.0328     0.0176     0.0899     3.2577    28.1600     0.0618     0.2610
   90    1.780   1839.33     0.0791     0.0025     0.0317     0.0178     0.0926     3.2480    28.4800     0.0642     0.2255
   91    1.800   1840.28     0.0781     0.0027     0.0348     0.0180     0.0925     3.4672    28.8000     0.0637     0.2588
   92    1.820   1841.23     0.0765     0.0027     0.0395     0.0182     0.0926     3.5315    29.1200     0.0634     0.3151
   93    1.840   1842.23     0.0756     0.0026     0.0409     0.0184     0.0928     3.4407    29.4400     0.0633     0.3562
   94    1.860   1843.14     0.0733     0.0024     0.0408     0.0186     0.0903     3.2548    29.7600     0.0605     0.3635
   95    1.880   1844.12     0.0707     0.0022     0.0424     0.0188     0.0884     3.0966    30.0800     0.0583     0.3988
   96    1.900   1845.06     0.0683     0.0022     0.0438     0.0190     0.0867     3.1446    30.4000     0.0563     0.4413
   97    1.920   1845.97     0.0682     0.0024     0.0454     0.0192     0.0870     3.5237    30.7200     0.0562     0.4529
   98    1.940   1846.93     0.0693     0.0024     0.0462     0.0194     0.0886     3.4288    31.0400     0.0576     0.4602
   99    1.960   1847.88     0.0721     0.0024     0.0456     0.0196     0.0914     3.3959    31.3600     0.0601     0.4383
  100    1.980   1848.86     0.0732     0.0024     0.0433     0.0198     0.0919     3.2429    31.6800     0.0603     0.4114
  101    2.000   1849.81     0.0745     0.0025     0.0418     0.0200     0.0920     3.3024    32.0000     0.0600     0.3634
  102    2.020   1850.79     0.0744     0.0025     0.0457     0.0202     0.0929     3.3332    32.3200     0.0606     0.3950
  103    2.040   1851.73     0.0761     0.0025     0.0471     0.0204     0.0950     3.3129    32.6400     0.0624     0.3965
  104    2.060   1852.68     0.0797     0.0025     0.0481     0.0206     0.0999     3.1388    32.9600     0.0670     0.4110
  105    2.080   1853.62     0.0805     0.0026     0.0465     0.0208     0.1009     3.1584    33.2800     0.0677     0.4107
  106    2.100   1854.57     0.0813     0.0025     0.0461     0.0210     0.1004     3.0749    33.6000     0.0668     0.3650
  107    2.120   1855.56     0.0805     0.0024     0.0478     0.0212     0.1004     3.0072    33.9200     0.0665     0.3934
  108    2.140   1856.51     0.0860     0.0025     0.0485     0.0214     0.1063     2.9834    34.2400     0.0721     0.3740
  109    2.160   1857.47     0.0891     0.0024     0.0517     0.0216     0.1101     2.6895    34.5600     0.0755     0.3754
  110    2.180   1858.41     0.0941     0.0026     0.0565     0.0218     0.1172     2.7884    34.8800     0.0823     0.4048
  111    2.200   1859.36     0.0979     0.0026     0.0585     0.0220     0.1222     2.6972    35.2000     0.0870     0.4118
  112    2.220   1860.35     0.1002     0.0026     0.0571     0.0222     0.1242     2.6256    35.5200     0.0887     0.3958
  113    2.240   1861.30     0.1000     0.0025     0.0595     0.0224     0.1246     2.4367    35.8400     0.0887     0.4070
  114    2.260   1862.25     0.0993     0.0023     0.0598     0.0226     0.1245     2.2904    36.1600     0.0883     0.4213
  115    2.280   1863.20     0.0955     0.0021     0.0609     0.0228     0.1210     2.1404    36.4800     0.0845     0.4472
  116    2.300   1864.18     0.0962     0.0021     0.0582     0.0230     0.1212     2.2193    36.8000     0.0844     0.4318
  117    2.320   1865.14     0.1001     0.0022     0.0547     0.0232     0.1239     2.2291    37.1200     0.0868     0.3868
  118    2.340   1866.08     0.1093     0.0021     0.0504     0.0234     0.1305     2.0347    37.4400     0.0931     0.2922
  119    2.360   1867.05     0.1162     0.0024     0.0473     0.0236     0.1368     2.1210    37.7600     0.0990     0.2578
  120    2.380   1867.99     0.1195     0.0024     0.0446     0.0238     0.1383     2.0561    38.0800     0.1002     0.2090
  121    2.400   1868.95     0.1195     0.0025     0.0467     0.0240     0.1387     2.1150    38.4000     0.1003     0.2156
  122    2.420   1869.88     0.1162     0.0028     0.0490     0.0242     0.1366     2.3720    38.7200     0.0979     0.2489
  123    2.440   1870.84     0.1144     0.0028     0.0497     0.0244     0.1351     2.4718    39.0400     0.0961     0.2592
  124    2.460   1871.77     0.1150     0.0025     0.0519     0.0246     0.1364     2.2170    39.3600     0.0970     0.2707
  125    2.480   1872.72     0.1151     0.0025     0.0555     0.0248     0.1379     2.1999    39.6800     0.0982     0.3000
  126    2.500   1873.67     0.1150     0.0022     0.0590     0.0250     0.1392     1.9130    40.0000     0.0992     0.3290
  127    2.520   1874.62     0.1175     0.0021     0.0619     0.0252     0.1431     1.7654    40.3200     0.1027     0.3469
  128    2.540   1875.59     0.1192     0.0019     0.0630     0.0254     0.1459     1.6145    40.6400     0.1052     0.3615
  129    2.560   1876.58     0.1213     0.0020     0.0609     0.0256     0.1471     1.6226    40.9600     0.1062     0.3382
  130    2.580   1877.48     0.1256     0.0020     0.0598     0.0258     0.1510     1.6038    41.2800     0.1097     0.3161
  131    2.600   1878.48     0.1300     0.0022     0.0536     0.0260     0.1535     1.6928    41.6000     0.1119     0.2673
  132    2.620   1879.41     0.1293     0.0023     0.0478     0.0262     0.1503     1.7676    41.9200     0.1083     0.2179
  133    2.640   1880.36     0.1339     0.0023     0.0396     0.0264     0.1516     1.7535    42.2400     0.1094     0.1436
  134    2.660   1881.31     0.1391     0.0024     0.0411     0.0266     0.1557     1.7175    42.5600     0.1131     0.1141
  135    2.680   1882.29     0.1403     0.0025     0.0498     0.0268     0.1599     1.8099    42.8800     0.1171     0.1713
  136    2.700   1883.25     0.1378     0.0028     0.0561     0.0270     0.1606     2.0594    43.2000     0.1174     0.2330
