

 Program UNIPLOT                         version 05.36.02
 _______________
 (c) Fugro Netherlands Marine, Nootdorp, The Netherlands


 ASCII representation of data plotted on a graph.

 This ASCII file presents data interpolated to values per fixed depth interval.
 The data are corrected for the depth-offset differences between the various 
 transducers in the penetrometer.

 The records at the start of penetration may include no values or anomalous
 values where a depth offset implies incomplete penetration of a particular
 sensor into the ground.

 The records at the end of penetration may include no values for data channels
 where the transducer did not reach this depth.

 The reference level for test values is (1) the ground surface for onshore tests and (2) the seafloor for nearshore and offshore tests.

 UNICAS data file          : CPT-2017.000                            
 Output using command file : PlotASCII.cmd

 ASCII file created at : date          :06-May-2022
                         time          :10:32:12
 Project number                        :20024805
 Date of testing                       :28-Apr-2022
 Location                              :Hong Kong Offshore Wind Farm Project
 Test name                             :CPT-2017
 Penetrometer                          :F7.5CKE2HAW2/B/3285
 Serial no                             :1701-3285

 Table description:
 Column ID                             :Parameter name
 ___________________________________________________________________________________
 Rec                                   :Record ID, Record ID [-]
 Depth                                 :Depth, Depth [m]
 Time                                  :Time, Time [s]
 Cone                                  :Cone Resistance, Cone Resistance [MPa]
 Friction                              :Sleeve Friction, Sleeve Friction [MPa]
 Pore 2                                :Porewater Pressure, Porewater Pressure at Shoulder [MPa]
 HydroPress                            :Hydrostatic Pressure, Hydrostatic Pressure [MPa]
 qt                                    :Total Cone Resistance, Total Cone Resistance [MPa]
 Fric_ratio                            :Friction Ratio, Friction Ratio [%]
 SigmaVert                             :Vertical stress, Vertical stress [kPa] as specified in ground model
 Qnet                                  :Net Cone Resistance, Net Cone Resistance [MPa], unit weight as specified in ground model
 Bq                                    :Porewater Pressure Ratio, Porewater Pressure Ratio [-], unit weight as specified in ground model


 Data table:
  Rec    Depth      Time       Cone   Friction     Pore 2 HydroPress         qt Fric_ratio  SigmaVert       Qnet         Bq
   No        m         s        MPa        MPa        MPa        MPa        MPa          %        kPa        MPa          -
    1    0.000   4574.06     0.0000                           0.0000     0.0000                0.0000     0.0000           
    2    0.020   4575.03     0.0041                0.0005     0.0002     0.0042                0.3200     0.0039     0.0120
    3    0.040   4576.00     0.0054                0.0008     0.0004     0.0057                0.6400     0.0051     0.0602
    4    0.060   4576.96     0.0024     0.0002     0.0011     0.0006     0.0029     6.2696     0.9600     0.0019     0.2798
    5    0.080   4577.94     0.0049     0.0004     0.0013     0.0008     0.0054     6.9770     1.2800     0.0042     0.1020
    6    0.100   4578.89     0.0033     0.0003     0.0014     0.0010     0.0038     5.4197     1.6000     0.0022     0.2850
    7    0.120   4579.84     0.0059     0.0003     0.0013     0.0012     0.0065     5.5791     1.9200     0.0046     0.0394
    8    0.140   4580.83     0.0037     0.0002     0.0013     0.0014     0.0042     6.9866     2.2400     0.0020    -0.1288
    9    0.160   4581.79     0.0033     0.0004     0.0014     0.0016     0.0040    18.5048     2.5600     0.0014     0.0350
   10    0.180   4582.72     0.0051     0.0003     0.0019     0.0018     0.0058     4.8104     2.8800     0.0029     0.0091
   11    0.200   4583.71     0.0058     0.0002     0.0024     0.0020     0.0067     4.0671     3.2000     0.0035     0.0767
   12    0.220   4584.63     0.0057     0.0005     0.0027     0.0022     0.0068     9.8878     3.5200     0.0032     0.1091
   13    0.240   4585.58     0.0057     0.0004     0.0030     0.0024     0.0069     7.3795     3.8400     0.0031     0.1880
   14    0.260   4586.56     0.0037     0.0003     0.0031     0.0026     0.0050     5.9531     4.1600     0.0009     0.7066
   15    0.280   4587.53     0.0064     0.0004     0.0030     0.0028     0.0077     7.7500     4.4800     0.0032     0.0787
   16    0.300   4588.47     0.0073     0.0005     0.0032     0.0030     0.0087     9.1118     4.8000     0.0039     0.0600
   17    0.320   4589.41     0.0047     0.0004     0.0032     0.0032     0.0061     6.6030     5.1200     0.0010     0.0702
   18    0.340   4590.38     0.0058     0.0003     0.0034     0.0034     0.0072     7.7738     5.4400     0.0017    -0.3508
   19    0.360   4591.36     0.0051     0.0002     0.0034     0.0036     0.0065     4.4258     5.7600     0.0008           
   20    0.380   4592.32     0.0062     0.0004     0.0037     0.0038     0.0077     5.7409     6.0800     0.0017    -0.0544
   21    0.400   4593.29     0.0055     0.0002     0.0040     0.0040     0.0071     3.3347     6.4000     0.0007    -0.0198
   22    0.420   4594.25     0.0064     0.0002     0.0045     0.0042     0.0083     4.3922     6.7200     0.0016     0.1496
   23    0.440   4595.19     0.0076     0.0004     0.0048     0.0044     0.0096     6.1970     7.0400     0.0025     0.0871
   24    0.460   4596.15     0.0084     0.0001     0.0052     0.0046     0.0105     1.7586     7.3600     0.0032     0.1274
   25    0.480   4597.12     0.0066     0.0004     0.0054     0.0048     0.0090     4.5236     7.6800     0.0013     0.5681
   26    0.500   4598.06     0.0057     0.0004     0.0053     0.0050     0.0079     6.3652     8.0000    -0.0001    -0.8349
   27    0.520   4598.99     0.0080     0.0002     0.0053     0.0052     0.0102     2.5008     8.3200     0.0019     0.0499
   28    0.540   4599.97     0.0061     0.0002     0.0053     0.0054     0.0083     2.6496     8.6400    -0.0004     0.1321
   29    0.560   4600.96     0.0074     0.0002     0.0055     0.0056     0.0097     2.2901     8.9600     0.0007    -0.2546
   30    0.580   4601.90     0.0081     0.0002     0.0058     0.0058     0.0105     2.4628     9.2800     0.0012    -0.1903
   31    0.600   4602.86     0.0065     0.0002     0.0061     0.0060     0.0090     2.7368     9.6000    -0.0006    -0.0433
   32    0.620   4603.81     0.0096     0.0003     0.0066     0.0062     0.0123     4.1160     9.9200     0.0024     0.0997
   33    0.640   4604.81     0.0093     0.0003     0.0071     0.0064     0.0122     2.6327    10.2400     0.0020     0.2736
   34    0.660   4605.76     0.0084     0.0003     0.0070     0.0066     0.0113     3.8605    10.5600     0.0008     0.4464
   35    0.680   4606.69     0.0085     0.0004     0.0071     0.0068     0.0115     4.2805    10.8800     0.0006     0.3458
   36    0.700   4607.65     0.0090    -0.0002     0.0073     0.0070     0.0121    -1.6043    11.2000     0.0009     0.1969
   37    0.720   4608.64     0.0088    -0.0005     0.0071     0.0072     0.0118   -10.6447    11.5200     0.0003     0.3968
   38    0.740   4609.56     0.0080     0.0018     0.0074     0.0074     0.0111     3.0885    11.8400    -0.0008     0.0694
   39    0.760   4610.56     0.0072     0.0042     0.0078     0.0076     0.0102    16.8217    12.1600    -0.0019     0.1394
   40    0.780   4611.96     0.0193     0.0066     0.0081     0.0078     0.0226    30.5549    12.4800     0.0102     0.0217
   41    0.800   4612.95     0.0354     0.0050     0.0083     0.0080     0.0388    17.0116    12.8000     0.0260     0.0084
   42    0.820   4613.88     0.0992     0.0039     0.0083     0.0082     0.1026     4.2230    13.1200     0.0895     0.0011
   43    0.840   4618.41     0.1062     0.0047     0.0086     0.0084     0.1097     4.2603    13.4400     0.0963     0.0010
   44    0.860   4623.85     0.0999     0.0046     0.0089     0.0086     0.1036     4.1028    13.7600     0.0898     0.0021
   45    0.880   4629.30     0.0936     0.0042     0.0092     0.0088     0.0974     3.7883    14.0800     0.0833     0.0032
   46    0.900   4633.43     0.0896     0.0038     0.0090     0.0090     0.0935     4.2478    14.4000     0.0791     0.0061
   47    0.920   4634.48     0.1348     0.0029     0.0065     0.0092     0.1376     2.1963    14.7200     0.1229    -0.0194
   48    0.940   4635.45     0.1331     0.0031     0.0111     0.0094     0.1365     2.3228    15.0400     0.1215    -0.0096
   49    0.960   4636.40     0.1460     0.0032     0.0087     0.0096     0.1509     2.3139    15.3600     0.1356     0.0170
   50    0.980   4637.38     0.1777     0.0030     0.0017     0.0098     0.1793     1.6638    15.6800     0.1637    -0.0366
   51    1.000   4638.35     0.1805     0.0029    -0.0089     0.0100     0.1783     1.6619    16.0000     0.1623    -0.0927
   52    1.020   4639.30     0.1644     0.0029    -0.0103     0.0102     0.1602     1.7332    16.3200     0.1438    -0.1409
   53    1.040   4640.25     0.1288     0.0035    -0.0110     0.0104     0.1243     2.3937    16.6400     0.1077    -0.1987
   54    1.060   4641.23     0.1006     0.0013    -0.0079     0.0106     0.0970     1.1652    16.9600     0.0800    -0.2427
   55    1.080   4642.20     0.0855     0.0012    -0.0013     0.0108     0.0837     1.3463    17.2800     0.0664    -0.2268
   56    1.100   4643.15     0.0984     0.0021     0.0082     0.0110     0.1002     2.2344    17.6000     0.0826    -0.0811
   57    1.120   4644.12     0.1234     0.0026     0.0141     0.0112     0.1289     2.3692    17.9200     0.1109     0.0169
   58    1.140   4645.07     0.1400     0.0034     0.0133     0.0114     0.1461     2.4508    18.2400     0.1279     0.0250
   59    1.160   4646.02     0.1619     0.0036     0.0036     0.0116     0.1637     2.4875    18.5600     0.1451    -0.0499
   60    1.180   4646.99     0.1466     0.0037     0.0024     0.0118     0.1475     2.4277    18.8800     0.1287    -0.0757
   61    1.200   4647.94     0.1387     0.0032    -0.0028     0.0120     0.1394     2.4179    19.2000     0.1202    -0.0856
   62    1.220   4648.92     0.1389     0.0037    -0.0058     0.0122     0.1354     2.3956    19.5200     0.1158    -0.1803
   63    1.240   4649.89     0.1016     0.0036     0.0021     0.0124     0.1018     3.1953    19.8400     0.0819    -0.1468
   64    1.260   4650.83     0.0978     0.0040     0.0094     0.0126     0.1008     4.1470    20.1600     0.0807    -0.0672
   65    1.280   4651.78     0.1047     0.0046     0.0141     0.0128     0.1100     4.5389    20.4800     0.0895    -0.0021
   66    1.300   4652.73     0.1085     0.0047     0.0187     0.0130     0.1160     4.2728    20.8000     0.0952     0.0499
   67    1.320   4653.68     0.1063     0.0052     0.0168     0.0132     0.1142     4.9025    21.1200     0.0931     0.0609
   68    1.340   4654.66     0.1044     0.0051     0.0146     0.0134     0.1118     4.7921    21.4400     0.0903     0.0458
   69    1.360   4655.63     0.1105     0.0053     0.0069     0.0136     0.1152     4.8078    21.7600     0.0934    -0.0261
   70    1.380   4656.61     0.1142     0.0054     0.0118     0.0138     0.1167     4.7741    22.0800     0.0946    -0.0830
   71    1.400   4657.52     0.1153     0.0057     0.0173     0.0140     0.1221     5.0282    22.4000     0.0997     0.0210
   72    1.420   4658.50     0.1189     0.0052     0.0188     0.0142     0.1266     4.3987    22.7200     0.1038     0.0388
   73    1.440   4659.43     0.1161     0.0052     0.0193     0.0144     0.1241     4.5315    23.0400     0.1011     0.0468
   74    1.460   4660.38     0.1181     0.0050     0.0188     0.0146     0.1264     4.1691    23.3600     0.1030     0.0490
   75    1.480   4661.34     0.1081     0.0050     0.0193     0.0148     0.1157     4.3934    23.6800     0.0920     0.0350
   76    1.500   4662.31     0.0996     0.0049     0.0211     0.0150     0.1082     4.9056    24.0000     0.0842     0.0628
   77    1.520   4663.29     0.0978     0.0052     0.0231     0.0152     0.1075     5.3341    24.3200     0.0832     0.0960
   78    1.540   4664.26     0.1001     0.0053     0.0242     0.0154     0.1101     5.1737    24.6400     0.0854     0.0976
   79    1.560   4665.22     0.0868     0.0056     0.0218     0.0156     0.0961     6.1913    24.9600     0.0711     0.0910
   80    1.580   4666.20     0.0864     0.0058     0.0252     0.0158     0.0966     6.7445    25.2800     0.0713     0.1190
   81    1.600   4667.15     0.0877     0.0057     0.0266     0.0160     0.0981     6.5778    25.6000     0.0725     0.1228
   82    1.620   4668.10     0.0972     0.0055     0.0300     0.0162     0.1095     5.7772    25.9200     0.0836     0.1558
   83    1.640   4669.04     0.1031     0.0051     0.0319     0.0164     0.1164     5.2856    26.2400     0.0902     0.1697
   84    1.660   4670.02     0.0996     0.0046     0.0305     0.0166     0.1123     4.7941    26.5600     0.0858     0.1603
   85    1.680   4670.99     0.1050     0.0042     0.0340     0.0168     0.1190     4.3025    26.8800     0.0921     0.1803
   86    1.700   4671.92     0.1021     0.0047     0.0324     0.0170     0.1165     4.4718    27.2000     0.0893     0.1932
   87    1.720   4672.90     0.0948     0.0049     0.0276     0.0172     0.1066     5.1806    27.5200     0.0791     0.1376
   88    1.740   4685.30     0.1068     0.0048     0.0281     0.0174     0.1185     5.0387    27.8400     0.0907     0.1194
   89    1.760   4700.93     0.1210     0.0047     0.0286     0.0176     0.1330     4.9486    28.1600     0.1048     0.1074
   90    1.780   4716.57     0.1352     0.0047     0.0291     0.0178     0.1474     4.9508    28.4800     0.1189     0.0954
   91    1.800   4723.75     0.1342     0.0046     0.0254     0.0180     0.1450     3.2901    28.8000     0.1162     0.0655
   92    1.820   4724.70     0.1073     0.0048     0.0266     0.0182     0.1176     4.1188    29.1200     0.0885     0.0727
   93    1.840   4725.63     0.0941     0.0048     0.0313     0.0184     0.1065     4.9446    29.4400     0.0771     0.1443
   94    1.860   4726.59     0.0987     0.0052     0.0357     0.0186     0.1132     5.2406    29.7600     0.0834     0.1909
   95    1.880   4727.56     0.1003     0.0051     0.0394     0.0188     0.1163     5.0759    30.0800     0.0862     0.2223
   96    1.900   4728.51     0.1004     0.0049     0.0421     0.0190     0.1177     4.9284    30.4000     0.0873     0.2560
   97    1.920   4729.44     0.1030     0.0049     0.0454     0.0192     0.1215     4.7235    30.7200     0.0908     0.2738
   98    1.940   4730.46     0.1039     0.0047     0.0481     0.0194     0.1237     4.7029    31.0400     0.0927     0.3013
   99    1.960   4731.39     0.1048     0.0050     0.0498     0.0196     0.1258     4.6787    31.3600     0.0945     0.3218
  100    1.980   4732.36     0.1063     0.0057     0.0523     0.0198     0.1272     5.4015    31.6800     0.0956     0.3144
  101    2.000   4733.31     0.1065     0.0058     0.0533     0.0200     0.1291     5.4397    32.0000     0.0971     0.3485
  102    2.020   4734.26     0.1107     0.0059     0.0467     0.0202     0.1314     5.5435    32.3200     0.0990     0.2940
  103    2.040   4735.21     0.1198     0.0057     0.0446     0.0204     0.1392     4.8109    32.6400     0.1066     0.2437
  104    2.060   4736.18     0.1272     0.0056     0.0455     0.0206     0.1463     4.4059    32.9600     0.1134     0.2204
  105    2.080   4737.15     0.1203     0.0056     0.0494     0.0208     0.1406     4.5776    33.2800     0.1073     0.2575
  106    2.100   4738.12     0.1160     0.0051     0.0508     0.0210     0.1367     4.3520    33.6000     0.1031     0.2746
  107    2.120   4739.09     0.1156     0.0052     0.0548     0.0212     0.1381     4.5356    33.9200     0.1042     0.3113
  108    2.140   4740.01     0.1211     0.0048     0.0562     0.0214     0.1448     4.0992    34.2400     0.1106     0.3174
  109    2.160   4740.99     0.1230     0.0045     0.0551     0.0216     0.1463     3.6333    34.5600     0.1117     0.3024
  110    2.180   4741.95     0.1193     0.0047     0.0580     0.0218     0.1431     3.9426    34.8800     0.1082     0.3234
  111    2.200   4742.92     0.1264     0.0053     0.0586     0.0220     0.1512     4.3680    35.2000     0.1160     0.3199
  112    2.220   4743.86     0.1336     0.0056     0.0568     0.0222     0.1576     4.2805    35.5200     0.1220     0.2865
  113    2.240   4744.81     0.1388     0.0057     0.0590     0.0224     0.1630     4.1705    35.8400     0.1272     0.2777
  114    2.260   4745.74     0.1432     0.0061     0.0541     0.0226     0.1666     4.3438    36.1600     0.1304     0.2531
  115    2.280   4746.73     0.1526     0.0059     0.0528     0.0228     0.1748     3.8922    36.4800     0.1383     0.2172
  116    2.300   4747.68     0.1521     0.0059     0.0511     0.0230     0.1740     3.8707    36.8000     0.1372     0.2119
  117    2.320   4748.61     0.1548     0.0061     0.0542     0.0232     0.1775     4.0013    37.1200     0.1403     0.2199
  118    2.340   4749.62     0.1644     0.0059     0.0547     0.0234     0.1878     3.7007    37.4400     0.1504     0.2150
  119    2.360   4750.56     0.1671     0.0052     0.0564     0.0236     0.1913     3.0723    37.7600     0.1536     0.2230
  120    2.380   4751.50     0.1722     0.0051     0.0551     0.0238     0.1949     2.9010    38.0800     0.1568     0.1928
  121    2.400   4752.47     0.1703     0.0052     0.0582     0.0240     0.1943     3.0455    38.4000     0.1559     0.2128
  122    2.420   4753.44     0.1612     0.0057     0.0612     0.0242     0.1864     3.5122    38.7200     0.1476     0.2415
  123    2.440   4754.38     0.1784     0.0060     0.0660     0.0244     0.2056     3.4842    39.0400     0.1666     0.2420
  124    2.460   4755.36     0.2320     0.0052     0.0656     0.0246     0.2600     2.5060    39.3600     0.2207     0.1921
  125    2.480   4756.32     0.2779     0.0051     0.0521     0.0248     0.3023     1.8851    39.6800     0.2626     0.1263
  126    2.500   4757.25     0.2638     0.0052     0.0466     0.0250     0.2837     1.9139    40.0000     0.2437     0.0923
  127    2.520   4758.23     0.2248     0.0050     0.0493     0.0252     0.2453     2.0905    40.3200     0.2050     0.1154
  128    2.540   4759.19     0.1912     0.0047     0.0533     0.0254     0.2128     2.3398    40.6400     0.1721     0.1513
  129    2.560   4760.15     0.1688     0.0042     0.0531     0.0256     0.1913     2.4518    40.9600     0.1504     0.1865
  130    2.580   4761.07     0.1753     0.0044     0.0515     0.0258     0.1976     2.5493    41.2800     0.1564     0.1758
  131    2.600   4762.05     0.2175     0.0044     0.0525     0.0260     0.2390     2.2556    41.6000     0.1974     0.1276
  132    2.620   4763.04     0.2696     0.0044     0.0449     0.0262     0.2917     1.6719    41.9200     0.2498     0.1057
  133    2.640   4763.98     0.2656     0.0041     0.0352     0.0264     0.2804     1.4892    42.2400     0.2382     0.0372
  134    2.660   4764.95     0.3110     0.0040     0.0384     0.0266     0.3266     1.4075    42.5600     0.2840     0.0365
  135    2.680   4765.90     0.3807     0.0038     0.0363     0.0268     0.3970     1.0411    42.8800     0.3541     0.0337
  136    2.700   4766.90     0.4170     0.0043     0.0300     0.0270     0.4300     1.0526    43.2000     0.3868     0.0103
