

 Program UNIPLOT                         version 05.36.02
 _______________
 (c) Fugro Netherlands Marine, Nootdorp, The Netherlands


 ASCII representation of data plotted on a graph.

 This ASCII file presents data interpolated to values per fixed depth interval.
 The data are corrected for the depth-offset differences between the various 
 transducers in the penetrometer.

 The records at the start of penetration may include no values or anomalous
 values where a depth offset implies incomplete penetration of a particular
 sensor into the ground.

 The records at the end of penetration may include no values for data channels
 where the transducer did not reach this depth.

 The reference level for test values is (1) the ground surface for onshore tests and (2) the seafloor for nearshore and offshore tests.

 UNICAS data file          : CPT-1018.000                            
 Output using command file : PlotASCII.cmd

 ASCII file created at : date          :18-Mar-2022
                         time          :13:59:41
 Project number                        :20024805                                                                                            
 Date of testing                       :17-Mar-2022                                                                                         
 Location                              :Hong Kong Offshore Wind Farm Project                                                                
 Test name                             :CPT-1018
 Penetrometer                          :F7.5CKE2HAW2/B/3342
 Serial no                             :1701-3342

 Table description:
 Column ID                             :Parameter name
 ___________________________________________________________________________________
 Rec                                   :Record ID, Record ID [-]
 Depth                                 :Depth, Depth [m]
 Time                                  :Time, Time [s]
 Cone                                  :Cone Resistance, Cone Resistance [MPa]
 Friction                              :Sleeve Friction, Sleeve Friction [MPa]
 Pore 2                                :Porewater Pressure, Porewater Pressure at Shoulder [MPa]
 HydroPress                            :Hydrostatic Pressure, Hydrostatic Pressure [MPa]
 qt                                    :Total Cone Resistance, Total Cone Resistance [MPa]
 Fric_ratio                            :Friction Ratio, Friction Ratio [%]
 SigmaVert                             :Vertical stress, Vertical stress [kPa] as specified in ground model
 Qnet                                  :Net Cone Resistance, Net Cone Resistance [MPa], unit weight as specified in ground model
 Bq                                    :Porewater Pressure Ratio, Porewater Pressure Ratio [-], unit weight as specified in ground model


 Data table:
  Rec    Depth      Time       Cone   Friction     Pore 2 HydroPress         qt Fric_ratio  SigmaVert       Qnet         Bq
   No        m         s        MPa        MPa        MPa        MPa        MPa          %        kPa        MPa          -
    1    0.000   1991.78     0.0000                           0.0000     0.0000                0.0000     0.0000           
    2    0.020   1992.69     0.0044               -0.0002     0.0002     0.0043                0.3200     0.0039    -0.1225
    3    0.040   1995.30     0.0106               -0.0006     0.0004     0.0105                0.6400     0.0098    -0.0849
    4    0.060   1999.61     0.0117               -0.0011     0.0006     0.0113                0.9600     0.0104    -0.1474
    5    0.080   2002.25     0.0117     0.0006    -0.0026     0.0008     0.0108     4.6810     1.2800     0.0095    -0.3040
    6    0.100   2003.16     0.0097     0.0007    -0.0040     0.0010     0.0080     6.3915     1.6000     0.0064    -0.8116
    7    0.120   2004.07     0.0093     0.0007    -0.0046     0.0012     0.0074     7.3915     1.9200     0.0055    -1.0344
    8    0.140   2004.99     0.0099     0.0007    -0.0033     0.0014     0.0084     6.9539     2.2400     0.0062    -0.8043
    9    0.160   2005.95     0.0115     0.0009    -0.0012     0.0016     0.0108     8.8646     2.5600     0.0083    -0.3830
   10    0.180   2006.91     0.0133     0.0010    -0.0001     0.0018     0.0131     7.8802     2.8800     0.0102    -0.2297
   11    0.200   2007.92     0.0138     0.0011    -0.0017     0.0020     0.0133     7.7857     3.2000     0.0101    -0.3124
   12    0.220   2008.97     0.0143     0.0011    -0.0010     0.0022     0.0138     7.7074     3.5200     0.0103    -0.3458
   13    0.240   2010.01     0.0154     0.0011    -0.0008     0.0024     0.0149     7.3669     3.8400     0.0111    -0.3226
   14    0.260   2011.03     0.0156     0.0011     0.0010     0.0026     0.0158     7.2550     4.1600     0.0117    -0.1722
   15    0.280   2012.03     0.0178     0.0012     0.0026     0.0028     0.0186     6.5369     4.4800     0.0141    -0.0599
   16    0.300   2013.03     0.0193     0.0012     0.0035     0.0030     0.0207     6.0999     4.8000     0.0159     0.0313
   17    0.320   2014.06     0.0209     0.0012     0.0032     0.0032     0.0223     5.5519     5.1200     0.0172     0.0118
   18    0.340   2015.06     0.0224     0.0013     0.0011     0.0034     0.0233     6.0208     5.4400     0.0179    -0.0684
   19    0.360   2016.06     0.0226     0.0014    -0.0024     0.0036     0.0219     6.3614     5.7600     0.0161    -0.3311
   20    0.380   2017.06     0.0241     0.0012    -0.0010     0.0038     0.0234     5.1865     6.0800     0.0173    -0.3161
   21    0.400   2018.06     0.0230     0.0012     0.0005     0.0040     0.0232     5.2649     6.4000     0.0168    -0.2077
   22    0.420   2019.10     0.0211     0.0012    -0.0006     0.0042     0.0209     5.5636     6.7200     0.0142    -0.3404
   23    0.440   2020.08     0.0174     0.0011     0.0001     0.0044     0.0171     6.1733     7.0400     0.0100    -0.5159
   24    0.460   2021.07     0.0115     0.0011     0.0045     0.0046     0.0129     9.3238     7.3600     0.0055    -0.2140
   25    0.480   2022.07     0.0129     0.0011     0.0036     0.0048     0.0147     9.3577     7.6800     0.0070    -0.0700
   26    0.500   2023.07     0.0163     0.0011     0.0020     0.0050     0.0172     7.0900     8.0000     0.0092    -0.3023
   27    0.520   2024.07     0.0180     0.0013     0.0039     0.0052     0.0194     7.1268     8.3200     0.0110    -0.1686
   28    0.540   2025.08     0.0195     0.0015     0.0048     0.0054     0.0215     7.5805     8.6400     0.0129    -0.0406
   29    0.560   2026.08     0.0191     0.0015     0.0054     0.0056     0.0211     7.6287     8.9600     0.0121    -0.0693
   30    0.580   2027.08     0.0209     0.0016     0.0058     0.0058     0.0237     7.5721     9.2800     0.0144     0.0658
   31    0.600   2028.08     0.0226     0.0017     0.0064     0.0060     0.0246     7.5167     9.6000     0.0150    -0.0890
   32    0.620   2029.10     0.0225     0.0017     0.0082     0.0062     0.0258     7.6581     9.9200     0.0159     0.0982
   33    0.640   2030.10     0.0214     0.0017     0.0090     0.0064     0.0251     7.6570    10.2400     0.0149     0.1631
   34    0.660   2031.10     0.0211     0.0016     0.0094     0.0066     0.0250     7.6769    10.5600     0.0145     0.1847
   35    0.680   2032.10     0.0213     0.0015     0.0097     0.0068     0.0253     6.9788    10.8800     0.0144     0.1851
   36    0.700   2033.10     0.0191     0.0015     0.0095     0.0070     0.0233     7.6665    11.2000     0.0121     0.2549
   37    0.720   2034.08     0.0177     0.0014     0.0090     0.0072     0.0213     8.0331    11.5200     0.0098     0.1443
   38    0.740   2035.09     0.0160     0.0014     0.0098     0.0074     0.0201     8.5736    11.8400     0.0083     0.2955
   39    0.760   2036.10     0.0163     0.0014     0.0092     0.0076     0.0202     8.1725    12.1600     0.0081     0.2241
   40    0.780   2037.09     0.0157     0.0015     0.0086     0.0078     0.0193     9.4122    12.4800     0.0068     0.1289
   41    0.800   2038.06     0.0132     0.0016     0.0088     0.0080     0.0169    11.9929    12.8000     0.0041     0.1797
   42    0.820   2039.08     0.0119     0.0016     0.0096     0.0082     0.0158    13.4792    13.1200     0.0027     0.4095
   43    0.840   2040.09     0.0154     0.0018     0.0099     0.0084     0.0195    12.6470    13.4400     0.0060     0.2132
   44    0.860   2041.06     0.0210     0.0020     0.0116     0.0086     0.0257    11.1600    13.7600     0.0119     0.2045
   45    0.880   2042.06     0.0221     0.0022     0.0136     0.0088     0.0275     9.9617    14.0800     0.0134     0.3050
   46    0.900   2043.07     0.0217     0.0021     0.0137     0.0090     0.0275     9.5179    14.4000     0.0131     0.3691
   47    0.920   2044.04     0.0229     0.0020     0.0137     0.0092     0.0286     8.8503    14.7200     0.0139     0.3162
   48    0.940   2049.99     0.0245     0.0020     0.0135     0.0094     0.0302     8.2373    15.0400     0.0152     0.2845
   49    0.960   2070.41     0.0260     0.0019     0.0130     0.0096     0.0315     8.0170    15.3600     0.0162     0.2268
   50    0.980   2090.84     0.0275     0.0018     0.0129     0.0098     0.0329     7.0466    15.6800     0.0172     0.1692
   51    1.000   2094.57     0.0290     0.0017     0.0130     0.0100     0.0345     5.8136    16.0000     0.0185     0.1732
   52    1.020   2095.55     0.0308     0.0017     0.0133     0.0102     0.0362     5.3694    16.3200     0.0199     0.1409
   53    1.040   2096.55     0.0294     0.0016     0.0124     0.0104     0.0350     5.4205    16.6400     0.0183     0.1514
   54    1.060   2097.55     0.0281     0.0016     0.0137     0.0106     0.0334     5.6606    16.9600     0.0164     0.1189
   55    1.080   2098.58     0.0277     0.0016     0.0141     0.0108     0.0339     5.8295    17.2800     0.0166     0.2410
   56    1.100   2099.55     0.0282     0.0017     0.0129     0.0110     0.0333     5.8833    17.6000     0.0157     0.0777
   57    1.120   2100.55     0.0277     0.0017     0.0164     0.0112     0.0343     6.1117    17.9200     0.0164     0.2673
   58    1.140   2101.58     0.0266     0.0018     0.0172     0.0114     0.0339     6.5983    18.2400     0.0157     0.3824
   59    1.160   2102.56     0.0268     0.0017     0.0137     0.0116     0.0330     6.3197    18.5600     0.0145     0.2097
   60    1.180   2103.54     0.0272     0.0018     0.0163     0.0118     0.0336     6.5965    18.8800     0.0148     0.2316
   61    1.200   2104.54     0.0272     0.0018     0.0177     0.0120     0.0345     6.5050    19.2000     0.0153     0.3554
   62    1.220   2105.53     0.0278     0.0018     0.0177     0.0122     0.0350     6.6880    19.5200     0.0155     0.3264
   63    1.240   2106.54     0.0294     0.0017     0.0197     0.0124     0.0375     5.8859    19.8400     0.0176     0.3905
   64    1.260   2107.56     0.0323     0.0016     0.0207     0.0126     0.0409     5.0557    20.1600     0.0207     0.3765
   65    1.280   2108.52     0.0334     0.0017     0.0217     0.0128     0.0424     5.0500    20.4800     0.0219     0.3915
   66    1.300   2109.51     0.0351     0.0017     0.0228     0.0130     0.0445     4.7893    20.8000     0.0237     0.4039
   67    1.320   2110.52     0.0361     0.0017     0.0240     0.0132     0.0461     4.6857    21.1200     0.0250     0.4230
   68    1.340   2111.50     0.0365     0.0018     0.0225     0.0134     0.0466     5.0036    21.4400     0.0251     0.4164
   69    1.360   2112.50     0.0398     0.0019     0.0218     0.0136     0.0483     4.7131    21.7600     0.0265     0.2533
   70    1.380   2113.47     0.0411     0.0019     0.0242     0.0138     0.0512     4.6793    22.0800     0.0292     0.3567
   71    1.400   2114.49     0.0441     0.0020     0.0231     0.0140     0.0536     4.5054    22.4000     0.0312     0.2747
   72    1.420   2115.49     0.0465     0.0020     0.0260     0.0142     0.0569     4.2884    22.7200     0.0342     0.3085
   73    1.440   2116.49     0.0480     0.0021     0.0237     0.0144     0.0583     4.2516    23.0400     0.0352     0.2845
   74    1.460   2117.50     0.0446     0.0018     0.0254     0.0146     0.0549     3.8852    23.3600     0.0315     0.3157
   75    1.480   2118.49     0.0429     0.0019     0.0271     0.0148     0.0540     4.3503    23.6800     0.0304     0.3830
   76    1.500   2119.46     0.0438     0.0018     0.0280     0.0150     0.0553     4.1082    24.0000     0.0313     0.3993
   77    1.520   2120.46     0.0439     0.0019     0.0297     0.0152     0.0560     4.3266    24.3200     0.0316     0.4251
   78    1.540   2121.45     0.0449     0.0019     0.0312     0.0154     0.0578     4.1727    24.6400     0.0332     0.4644
   79    1.560   2122.45     0.0447     0.0020     0.0318     0.0156     0.0580     4.4024    24.9600     0.0330     0.4845
   80    1.580   2123.47     0.0476     0.0019     0.0330     0.0158     0.0611     4.0643    25.2800     0.0358     0.4601
   81    1.600   2124.47     0.0508     0.0019     0.0358     0.0160     0.0654     3.8857    25.6000     0.0398     0.4744
   82    1.620   2125.46     0.0535     0.0021     0.0377     0.0162     0.0690     3.9651    25.9200     0.0431     0.4817
   83    1.640   2126.47     0.0555     0.0022     0.0364     0.0164     0.0711     4.0195    26.2400     0.0449     0.4639
   84    1.660   2127.44     0.0560     0.0022     0.0353     0.0166     0.0703     3.8851    26.5600     0.0438     0.4017
   85    1.680   2128.44     0.0569     0.0024     0.0379     0.0168     0.0725     4.3390    26.8800     0.0456     0.4475
   86    1.700   2129.44     0.0570     0.0024     0.0404     0.0170     0.0736     4.2975    27.2000     0.0464     0.4845
   87    1.720   2130.44     0.0580     0.0022     0.0417     0.0172     0.0755     3.8055    27.5200     0.0480     0.5091
   88    1.740   2131.42     0.0588     0.0019     0.0436     0.0174     0.0767     3.2511    27.8400     0.0489     0.5174
   89    1.760   2132.45     0.0590     0.0018     0.0445     0.0176     0.0776     3.1275    28.1600     0.0495     0.5402
   90    1.780   2133.40     0.0596     0.0017     0.0480     0.0178     0.0793     2.9211    28.4800     0.0508     0.5709
   91    1.800   2134.40     0.0627     0.0018     0.0506     0.0180     0.0837     2.9421    28.8000     0.0549     0.5805
   92    1.820   2135.40     0.0655     0.0019     0.0519     0.0182     0.0872     2.8940    29.1200     0.0580     0.5742
   93    1.840   2136.40     0.0686     0.0019     0.0515     0.0184     0.0905     2.8102    29.4400     0.0610     0.5504
   94    1.860   2137.37     0.0727     0.0019     0.0502     0.0186     0.0941     2.6510    29.7600     0.0644     0.5018
   95    1.880   2138.37     0.0713     0.0020     0.0484     0.0188     0.0920     2.7817    30.0800     0.0619     0.4919
   96    1.900   2139.36     0.0737     0.0021     0.0505     0.0190     0.0950     2.8890    30.4000     0.0646     0.4890
   97    1.920   2140.32     0.0732     0.0022     0.0515     0.0192     0.0937     2.9653    30.7200     0.0630     0.4725
   98    1.940   2141.32     0.0744     0.0023     0.0518     0.0194     0.0969     3.1022    31.0400     0.0658     0.5167
   99    1.960   2142.32     0.0761     0.0024     0.0528     0.0196     0.0978     3.2246    31.3600     0.0664     0.4826
  100    1.980   2143.35     0.0780     0.0024     0.0534     0.0198     0.1003     3.0915    31.6800     0.0686     0.4830
  101    2.000   2144.35     0.0809     0.0025     0.0526     0.0200     0.1032     3.0998    32.0000     0.0712     0.4646
  102    2.020   2145.35     0.0839     0.0025     0.0494     0.0202     0.1048     2.9808    32.3200     0.0724     0.4065
  103    2.040   2146.32     0.0857     0.0025     0.0477     0.0204     0.1056     2.9311    32.6400     0.0729     0.3694
  104    2.060   2147.27     0.0849     0.0027     0.0490     0.0206     0.1051     3.1404    32.9600     0.0721     0.3808
  105    2.080   2148.30     0.0854     0.0027     0.0515     0.0208     0.1064     3.2232    33.2800     0.0731     0.3996
  106    2.100   2149.30     0.0861     0.0027     0.0539     0.0210     0.1083     3.1748    33.6000     0.0747     0.4262
  107    2.120   2150.31     0.0916     0.0028     0.0569     0.0212     0.1150     3.1036    33.9200     0.0810     0.4233
  108    2.140   2151.31     0.0984     0.0028     0.0541     0.0214     0.1214     2.8498    34.2400     0.0872     0.3836
  109    2.160   2152.31     0.1045     0.0027     0.0566     0.0216     0.1281     2.6197    34.5600     0.0936     0.3706
  110    2.180   2153.31     0.1071     0.0027     0.0588     0.0218     0.1316     2.5531    34.8800     0.0967     0.3777
  111    2.200   2154.25     0.1041     0.0028     0.0569     0.0220     0.1283     2.7021    35.2000     0.0931     0.3823
  112    2.220   2155.25     0.1034     0.0028     0.0561     0.0222     0.1273     2.6798    35.5200     0.0918     0.3778
  113    2.240   2156.22     0.1058     0.0028     0.0557     0.0224     0.1291     2.6184    35.8400     0.0932     0.3544
  114    2.260   2157.22     0.1036     0.0026     0.0584     0.0226     0.1281     2.5308    36.1600     0.0919     0.3893
  115    2.280   2158.22     0.1037     0.0026     0.0577     0.0228     0.1276     2.5125    36.4800     0.0911     0.3722
  116    2.300   2159.22     0.1021     0.0025     0.0611     0.0230     0.1271     2.4666    36.8000     0.0903     0.4054
  117    2.320   2160.22     0.1011     0.0024     0.0631     0.0232     0.1272     2.3484    37.1200     0.0900     0.4313
  118    2.340   2161.17     0.1017     0.0024     0.0627     0.0234     0.1277     2.3493    37.4400     0.0903     0.4263
  119    2.360   2162.19     0.1023     0.0021     0.0645     0.0236     0.1292     2.0745    37.7600     0.0914     0.4412
  120    2.380   2163.18     0.1036     0.0018     0.0645     0.0238     0.1315     1.7645    38.0800     0.0934     0.4559
  121    2.400   2164.18     0.1090     0.0018     0.0649     0.0240     0.1362     1.6444    38.4000     0.0978     0.4163
  122    2.420   2165.15     0.1196     0.0017     0.0633     0.0242     0.1462     1.4309    38.7200     0.1075     0.3652
  123    2.440   2166.14     0.1222     0.0014     0.0648     0.0244     0.1494     1.1577    39.0400     0.1103     0.3654
  124    2.460   2167.15     0.1299     0.0016     0.0587     0.0246     0.1564     1.2237    39.3600     0.1170     0.3292
  125    2.480   2168.10     0.1445     0.0018     0.0493     0.0248     0.1659     1.2545    39.6800     0.1262     0.2077
  126    2.500   2169.13     0.1452     0.0023     0.0499     0.0250     0.1652     1.6028    40.0000     0.1252     0.1818
  127    2.520   2170.13     0.1316     0.0025     0.0447     0.0252     0.1521     1.8494    40.3200     0.1118     0.2098
  128    2.540   2171.11     0.1282     0.0023     0.0298     0.0254     0.1404     1.7747    40.6400     0.0997     0.0345
  129    2.560   2172.10     0.1316     0.0021     0.0393     0.0256     0.1473     1.6286    40.9600     0.1063     0.1097
  130    2.580   2173.11     0.1346     0.0026     0.0470     0.0258     0.1532     1.9165    41.2800     0.1120     0.1649
  131    2.600   2174.13     0.1386     0.0028     0.0550     0.0260     0.1607     1.9916    41.6000     0.1191     0.2221
  132    2.620   2175.09     0.1418     0.0030     0.0582     0.0262     0.1662     2.1081    41.9200     0.1243     0.2574
  133    2.640   2176.09     0.1420     0.0030     0.0577     0.0264     0.1661     2.1028    42.2400     0.1239     0.2509
  134    2.660   2177.09     0.1380     0.0030     0.0481     0.0266     0.1599     2.1812    42.5600     0.1173     0.2157
