

 Program UNIPLOT                         version 05.36.02
 _______________
 (c) Fugro Netherlands Marine, Nootdorp, The Netherlands


 ASCII representation of data plotted on a graph.

 This ASCII file presents data interpolated to values per fixed depth interval.
 The data are corrected for the depth-offset differences between the various 
 transducers in the penetrometer.

 The records at the start of penetration may include no values or anomalous
 values where a depth offset implies incomplete penetration of a particular
 sensor into the ground.

 The records at the end of penetration may include no values for data channels
 where the transducer did not reach this depth.

 The reference level for test values is (1) the ground surface for onshore tests and (2) the seafloor for nearshore and offshore tests.

 UNICAS data file          : CPT-1024.000                            
 Output using command file : PlotASCII.cmd

 ASCII file created at : date          :20-Apr-2022
                         time          :10:19:33
 Project number                        :20024805                                                                                            
 Date of testing                       :12-Apr-2022                                                                                         
 Location                              :Hong Kong Offshore Wind Farm Project                                                                
 Test name                             :CPT-1024
 Penetrometer                          :F7.5CKE2HAW2/B/3342
 Serial no                             :1701-3342

 Table description:
 Column ID                             :Parameter name
 ___________________________________________________________________________________
 Rec                                   :Record ID, Record ID [-]
 Depth                                 :Depth, Depth [m]
 Time                                  :Time, Time [s]
 Cone                                  :Cone Resistance, Cone Resistance [MPa]
 Friction                              :Sleeve Friction, Sleeve Friction [MPa]
 Pore 2                                :Porewater Pressure, Porewater Pressure at Shoulder [MPa]
 HydroPress                            :Hydrostatic Pressure, Hydrostatic Pressure [MPa]
 qt                                    :Total Cone Resistance, Total Cone Resistance [MPa]
 Fric_ratio                            :Friction Ratio, Friction Ratio [%]
 SigmaVert                             :Vertical stress, Vertical stress [kPa] as specified in ground model
 Qnet                                  :Net Cone Resistance, Net Cone Resistance [MPa], unit weight as specified in ground model
 Bq                                    :Porewater Pressure Ratio, Porewater Pressure Ratio [-], unit weight as specified in ground model


 Data table:
  Rec    Depth      Time       Cone   Friction     Pore 2 HydroPress         qt Fric_ratio  SigmaVert       Qnet         Bq
   No        m         s        MPa        MPa        MPa        MPa        MPa          %        kPa        MPa          -
    1    0.000   1538.19     0.0000                           0.0000     0.0000                0.0000     0.0000           
    2    0.020   1539.22     0.0027                0.0002     0.0002     0.0028                0.3200     0.0025     0.0687
    3    0.040   1540.25     0.0032                0.0005     0.0004     0.0035                0.6400     0.0028     0.1087
    4    0.060   1541.30     0.0058     0.0002     0.0004     0.0006     0.0059     3.8808     0.9600     0.0049    -0.0715
    5    0.080   1542.37     0.0023     0.0003    -0.0004     0.0008     0.0022     8.6992     1.2800     0.0009     0.6704
    6    0.100   1543.44     0.0049     0.0002    -0.0006     0.0010     0.0048     7.2194     1.6000     0.0032    -0.4112
    7    0.120   1544.49     0.0061     0.0005    -0.0005     0.0012     0.0059     7.8527     1.9200     0.0040    -0.4123
    8    0.140   1545.49     0.0076     0.0005    -0.0001     0.0014     0.0075    11.2472     2.2400     0.0053    -0.5283
    9    0.160   1546.55     0.0082     0.0005     0.0008     0.0016     0.0086     7.0366     2.5600     0.0061    -0.1217
   10    0.180   1547.65     0.0109     0.0010     0.0003     0.0018     0.0111    10.4713     2.8800     0.0082    -0.1664
   11    0.200   1548.69     0.0117     0.0011    -0.0003     0.0020     0.0119    10.3528     3.2000     0.0087    -0.1991
   12    0.220   1549.69     0.0087     0.0010    -0.0001     0.0022     0.0085     8.4193     3.5200     0.0050    -0.5703
   13    0.240   1550.72     0.0088     0.0011    -0.0002     0.0024     0.0087     8.7096     3.8400     0.0048    -0.5927
   14    0.260   1551.78     0.0119     0.0007     0.0005     0.0026     0.0116     5.9978     4.1600     0.0074    -0.4545
   15    0.280   1552.83     0.0116     0.0013     0.0010     0.0028     0.0116    10.5243     4.4800     0.0071    -0.3950
   16    0.300   1553.91     0.0107     0.0012     0.0009     0.0030     0.0108    10.0439     4.8000     0.0060    -0.4456
   17    0.320   1554.91     0.0129     0.0011    -0.0008     0.0032     0.0126     9.1121     5.1200     0.0075    -0.5615
   18    0.340   1555.95     0.0137     0.0012     0.0018     0.0034     0.0141     9.4163     5.4400     0.0087    -0.2560
   19    0.360   1557.01     0.0130     0.0013     0.0026     0.0036     0.0139     9.9335     5.7600     0.0081    -0.1637
   20    0.380   1558.07     0.0153     0.0013     0.0028     0.0038     0.0164     9.6434     6.0800     0.0103    -0.1205
   21    0.400   1559.11     0.0122     0.0013     0.0023     0.0040     0.0131    13.0748     6.4000     0.0067    -0.2603
   22    0.420   1560.12     0.0103     0.0015     0.0030     0.0042     0.0115    18.9697     6.7200     0.0048    -0.3370
   23    0.440   1561.15     0.0113     0.0012     0.0040     0.0044     0.0127    10.9700     7.0400     0.0057    -0.1650
   24    0.460   1562.25     0.0102     0.0012     0.0056     0.0046     0.0123    12.6416     7.3600     0.0050     0.1008
   25    0.480   1563.24     0.0084     0.0011     0.0069     0.0048     0.0113    12.5109     7.6800     0.0036     0.5793
   26    0.500   1564.27     0.0064     0.0011     0.0076     0.0050     0.0094    13.9584     8.0000     0.0014     1.7202
   27    0.520   1565.28     0.0119     0.0014     0.0074     0.0052     0.0149    14.3403     8.3200     0.0066     0.3295
   28    0.540   1566.34     0.0094     0.0012     0.0083     0.0054     0.0128    13.6884     8.6400     0.0042     0.6705
   29    0.560   1567.41     0.0099     0.0015     0.0086     0.0056     0.0135    14.6829     8.9600     0.0046     0.7004
   30    0.580   1568.48     0.0099     0.0010     0.0082     0.0058     0.0134    11.1987     9.2800     0.0042     0.6775
   31    0.600   1569.48     0.0103     0.0015     0.0082     0.0060     0.0137    14.3912     9.6000     0.0041     0.5323
   32    0.620   1570.52     0.0078     0.0014     0.0079     0.0062     0.0113    18.0977     9.9200     0.0014     1.5469
   33    0.640   1571.57     0.0052     0.0012     0.0086     0.0064     0.0086    21.0088    10.2400    -0.0017    -1.0038
   34    0.660   1572.58     0.0071     0.0014     0.0064     0.0066     0.0104    12.8764    10.5600    -0.0001    -0.1784
   35    0.680   1573.64     0.0099     0.0014     0.0014     0.0068     0.0124    14.9030    10.8800     0.0015    -0.5912
   36    0.700   1574.72     0.0087     0.0013     0.0056     0.0070     0.0107    10.2564    11.2000    -0.0005     2.2690
   37    0.720   1575.72     0.0080     0.0012     0.0080     0.0072     0.0110    21.6317    11.5200    -0.0006     0.2772
   38    0.740   1576.75     0.0042     0.0012     0.0105     0.0074     0.0082    18.8075    11.8400    -0.0036    -0.9537
   39    0.760   1577.80     0.0054     0.0010     0.0108     0.0076     0.0097    15.3362    12.1600    -0.0025    -1.0736
   40    0.780   1578.86     0.0063     0.0013     0.0097     0.0078     0.0105    21.3366    12.4800    -0.0020    -1.4325
   41    0.800   1579.91     0.0077     0.0015     0.0098     0.0080     0.0116    23.5483    12.8000    -0.0012    -1.2463
   42    0.820   1580.94     0.0055     0.0013     0.0117     0.0082     0.0103    20.1337    13.1200    -0.0029    -1.1092
   43    0.840   1581.98     0.0045     0.0014     0.0096     0.0084     0.0089    38.7847    13.4400    -0.0046    -0.4014
   44    0.860   1583.02     0.0066     0.0013     0.0103     0.0086     0.0114    28.8560    13.7600    -0.0024    -2.1683
   45    0.880   1584.05     0.0099     0.0013     0.0047     0.0088     0.0118    12.5425    14.0800    -0.0023    -0.7368
   46    0.900   1585.09     0.0121     0.0012     0.0114     0.0090     0.0167    12.3489    14.4000     0.0023    -0.4135
   47    0.920   1586.13     0.0055     0.0013     0.0124     0.0092     0.0109    13.8481    14.7200    -0.0038    -0.2476
   48    0.940   1587.17     0.0058     0.0014     0.0124     0.0094     0.0106    26.6665    15.0400    -0.0044    -0.4939
   49    0.960   1588.25     0.0085     0.0015     0.0141     0.0096     0.0142    21.9483    15.3600    -0.0012    -3.1675
   50    0.980   1589.25     0.0084     0.0017     0.0107     0.0098     0.0128    20.1947    15.6800    -0.0028    -0.2892
   51    1.000   1590.30     0.0067     0.0016     0.0122     0.0100     0.0113    21.6292    16.0000    -0.0047    -0.2530
   52    1.020   1591.33     0.0047     0.0013     0.0137     0.0102     0.0105    17.9844    16.3200    -0.0059    -0.6228
   53    1.040   1592.33     0.0062     0.0010     0.0152     0.0104     0.0121    14.3397    16.6400    -0.0046    -0.7579
   54    1.060   1593.42     0.0038     0.0011     0.0168     0.0106     0.0107    24.7857    16.9600    -0.0062    -0.9601
   55    1.080   1594.44     0.0038     0.0012     0.0161     0.0108     0.0106    23.5614    17.2800    -0.0067    -0.9051
   56    1.100   1595.50     0.0051     0.0011     0.0159     0.0110     0.0116    34.3261    17.6000    -0.0060    -0.7761
   57    1.120   1615.40     0.0093     0.0011     0.0157     0.0112     0.0159    21.9098    17.9200    -0.0020    -0.3237
   58    1.140   1639.55     0.0144     0.0013     0.0155     0.0114     0.0210    25.5561    18.2400     0.0027     0.2972
   59    1.160   1655.13     0.0145     0.0012     0.0170     0.0116     0.0214     6.6679    18.5600     0.0028     1.9424
   60    1.180   1656.14     0.0197     0.0012     0.0197     0.0118     0.0277     6.9442    18.8800     0.0088     0.8538
   61    1.200   1657.22     0.0204     0.0010     0.0195     0.0120     0.0287     5.6324    19.2000     0.0095     0.8356
   62    1.220   1658.25     0.0166     0.0011     0.0191     0.0122     0.0248     6.4158    19.5200     0.0052     1.3849
   63    1.240   1659.30     0.0189     0.0012     0.0179     0.0124     0.0267     6.5224    19.8400     0.0068     0.9179
   64    1.260   1660.34     0.0219     0.0011     0.0182     0.0126     0.0295     5.3998    20.1600     0.0093     0.6067
   65    1.280   1661.41     0.0216     0.0009     0.0187     0.0128     0.0293     4.3193    20.4800     0.0088     0.6166
   66    1.300   1662.43     0.0233     0.0011     0.0188     0.0130     0.0313     5.1208    20.8000     0.0105     0.6281
   67    1.320   1663.50     0.0254     0.0013     0.0209     0.0132     0.0338     5.3886    21.1200     0.0127     0.5419
   68    1.340   1664.50     0.0262     0.0014     0.0206     0.0134     0.0353     5.4815    21.4400     0.0138     0.5875
   69    1.360   1665.52     0.0291     0.0009     0.0196     0.0136     0.0373     3.1374    21.7600     0.0156     0.3771
   70    1.380   1666.57     0.0321     0.0012     0.0197     0.0138     0.0402     4.3421    22.0800     0.0181     0.3128
   71    1.400   1667.64     0.0309     0.0014     0.0203     0.0140     0.0395     4.3704    22.4000     0.0171     0.3752
   72    1.420   1668.64     0.0361     0.0017     0.0212     0.0142     0.0452     5.2861    22.7200     0.0224     0.3266
   73    1.440   1669.72     0.0332     0.0015     0.0197     0.0144     0.0415     4.6085    23.0400     0.0184     0.2912
   74    1.460   1670.73     0.0337     0.0016     0.0226     0.0146     0.0427     4.7343    23.3600     0.0194     0.3529
   75    1.480   1671.76     0.0383     0.0014     0.0223     0.0148     0.0479     3.6196    23.6800     0.0242     0.3270
   76    1.500   1672.79     0.0403     0.0016     0.0268     0.0150     0.0509     4.5252    24.0000     0.0269     0.3803
   77    1.520   1673.81     0.0462     0.0016     0.0305     0.0152     0.0586     3.6621    24.3200     0.0342     0.4174
   78    1.540   1674.85     0.0524     0.0019     0.0315     0.0154     0.0653     3.7166    24.6400     0.0407     0.3775
   79    1.560   1675.92     0.0558     0.0020     0.0245     0.0156     0.0669     3.6638    24.9600     0.0420     0.2594
   80    1.580   1676.96     0.0577     0.0022     0.0194     0.0158     0.0665     3.9198    25.2800     0.0412     0.1243
   81    1.600   1678.01     0.0610     0.0024     0.0176     0.0160     0.0685     3.9951    25.6000     0.0429     0.0467
   82    1.620   1679.06     0.0571     0.0024     0.0208     0.0162     0.0652     4.1243    25.9200     0.0392     0.0770
   83    1.640   1680.09     0.0593     0.0026     0.0264     0.0164     0.0696     4.3804    26.2400     0.0433     0.1870
   84    1.660   1681.11     0.0595     0.0023     0.0302     0.0166     0.0718     3.8903    26.5600     0.0453     0.2835
   85    1.680   1682.15     0.0560     0.0027     0.0341     0.0168     0.0698     4.6849    26.8800     0.0429     0.3724
   86    1.700   1683.20     0.0523     0.0023     0.0308     0.0170     0.0659     4.2881    27.2000     0.0387     0.3987
   87    1.720   1684.20     0.0490     0.0023     0.0294     0.0172     0.0612     4.7101    27.5200     0.0337     0.3505
   88    1.740   1685.26     0.0524     0.0023     0.0290     0.0174     0.0646     4.5602    27.8400     0.0367     0.3159
   89    1.760   1686.28     0.0582     0.0023     0.0274     0.0176     0.0690     4.1213    28.1600     0.0409     0.2005
   90    1.780   1687.37     0.0609     0.0025     0.0328     0.0178     0.0745     4.0948    28.4800     0.0460     0.3153
   91    1.800   1688.37     0.0623     0.0023     0.0285     0.0180     0.0743     3.9350    28.8000     0.0455     0.2356
   92    1.820   1689.43     0.0729     0.0026     0.0265     0.0182     0.0843     3.8039    29.1200     0.0552     0.1638
   93    1.840   1690.48     0.0778     0.0024     0.0275     0.0184     0.0892     3.0575    29.4400     0.0598     0.1449
   94    1.860   1691.50     0.0770     0.0029     0.0279     0.0186     0.0886     3.6767    29.7600     0.0588     0.1510
   95    1.880   1692.57     0.0727     0.0027     0.0301     0.0188     0.0849     3.5856    30.0800     0.0548     0.1857
   96    1.900   1693.59     0.0674     0.0024     0.0355     0.0190     0.0814     3.4844    30.4000     0.0510     0.2816
   97    1.920   1694.61     0.0647     0.0024     0.0392     0.0192     0.0808     3.5375    30.7200     0.0500     0.3834
   98    1.940   1695.62     0.0618     0.0025     0.0407     0.0194     0.0787     3.9695    31.0400     0.0477     0.4379
   99    1.960   1696.68     0.0611     0.0026     0.0411     0.0196     0.0781     4.1036    31.3600     0.0467     0.4438
  100    1.980   1697.72     0.0580     0.0028     0.0410     0.0198     0.0753     4.8349    31.6800     0.0437     0.4906
  101    2.000   1698.77     0.0593     0.0028     0.0405     0.0200     0.0763     4.7290    32.0000     0.0443     0.4627
  102    2.020   1699.76     0.0605     0.0026     0.0426     0.0202     0.0783     4.2289    32.3200     0.0459     0.4799
  103    2.040   1700.82     0.0582     0.0023     0.0458     0.0204     0.0769     3.8616    32.6400     0.0443     0.5457
  104    2.060   1701.86     0.0590     0.0023     0.0508     0.0206     0.0797     3.8502    32.9600     0.0467     0.6110
  105    2.080   1702.91     0.0583     0.0022     0.0543     0.0208     0.0806     3.7731    33.2800     0.0473     0.6837
  106    2.100   1703.94     0.0629     0.0021     0.0579     0.0210     0.0867     3.3914    33.6000     0.0531     0.6725
  107    2.120   1704.99     0.0663     0.0021     0.0597     0.0212     0.0913     3.2805    33.9200     0.0574     0.6658
  108    2.140   1706.04     0.0716     0.0022     0.0541     0.0214     0.0954     3.0699    34.2400     0.0611     0.5758
  109    2.160   1707.05     0.0736     0.0022     0.0492     0.0216     0.0948     2.9390    34.5600     0.0602     0.4767
  110    2.180   1708.13     0.0720     0.0022     0.0491     0.0218     0.0926     2.8517    34.8800     0.0577     0.4727
  111    2.200   1709.13     0.0714     0.0021     0.0492     0.0220     0.0917     2.8719    35.2000     0.0565     0.4635
  112    2.220   1710.17     0.0692     0.0021     0.0499     0.0222     0.0904     3.0146    35.5200     0.0549     0.5149
  113    2.240   1711.25     0.0663     0.0021     0.0485     0.0224     0.0872     3.1537    35.8400     0.0514     0.5341
  114    2.260   1712.27     0.0655     0.0025     0.0526     0.0226     0.0872     3.7886    36.1600     0.0510     0.5688
  115    2.280   1713.31     0.0712     0.0024     0.0533     0.0228     0.0937     3.3606    36.4800     0.0572     0.5383
  116    2.300   1714.36     0.0748     0.0024     0.0427     0.0230     0.0937     3.2793    36.8000     0.0569     0.3878
  117    2.320   1715.41     0.0810     0.0025     0.0406     0.0232     0.0977     3.2074    37.1200     0.0606     0.2747
  118    2.340   1716.47     0.0809     0.0026     0.0458     0.0234     0.0996     3.2842    37.4400     0.0621     0.3378
  119    2.360   1717.52     0.0819     0.0024     0.0498     0.0236     0.1020     2.9555    37.7600     0.0642     0.3755
  120    2.380   1718.53     0.0809     0.0025     0.0542     0.0238     0.1031     3.1493    38.0800     0.0650     0.4454
  121    2.400   1719.58     0.0812     0.0025     0.0561     0.0240     0.1047     3.1158    38.4000     0.0663     0.4811
  122    2.420   1720.61     0.0843     0.0026     0.0570     0.0242     0.1080     3.1223    38.7200     0.0693     0.4650
  123    2.440   1721.64     0.0876     0.0023     0.0599     0.0244     0.1124     2.5911    39.0400     0.0734     0.4731
  124    2.460   1722.69     0.0904     0.0023     0.0611     0.0246     0.1162     2.6005    39.3600     0.0769     0.4797
  125    2.480   1723.69     0.0974     0.0024     0.0590     0.0248     0.1224     2.5366    39.6800     0.0828     0.4207
  126    2.500   1724.75     0.0981     0.0033     0.0579     0.0250     0.1223     3.4544    40.0000     0.0823     0.3959
  127    2.520   1725.80     0.0981     0.0034     0.0579     0.0252     0.1224     3.4736    40.3200     0.0820     0.3956
  128    2.540   1726.84     0.0990     0.0034     0.0526     0.0254     0.1219     3.3539    40.6400     0.0813     0.3598
  129    2.560   1727.87     0.1015     0.0032     0.0487     0.0256     0.1227     3.1068    40.9600     0.0818     0.3032
  130    2.580   1728.89     0.1044     0.0030     0.0488     0.0258     0.1237     3.0450    41.2800     0.0824     0.2469
  131    2.600   1729.92     0.0902     0.0038     0.0561     0.0260     0.1131     4.3137    41.6000     0.0715     0.3965
  132    2.620   1730.97     0.0903     0.0032     0.0607     0.0262     0.1154     3.4539    41.9200     0.0735     0.4571
  133    2.640   1731.98     0.0937     0.0031     0.0588     0.0264     0.1189     3.4187    42.2400     0.0767     0.4391
  134    2.660   1733.01     0.0918     0.0033     0.0608     0.0266     0.1166     3.5727    42.5600     0.0741     0.4414
