

 Program UNIPLOT                         version 05.36.02
 _______________
 (c) Fugro Netherlands Marine, Nootdorp, The Netherlands


 ASCII representation of data plotted on a graph.

 This ASCII file presents data interpolated to values per fixed depth interval.
 The data are corrected for the depth-offset differences between the various 
 transducers in the penetrometer.

 The records at the start of penetration may include no values or anomalous
 values where a depth offset implies incomplete penetration of a particular
 sensor into the ground.

 The records at the end of penetration may include no values for data channels
 where the transducer did not reach this depth.

 The reference level for test values is (1) the ground surface for onshore tests and (2) the seafloor for nearshore and offshore tests.

 UNICAS data file          : CPT-2001.000                            
 Output using command file : PlotASCII.cmd

 ASCII file created at : date          :16-Jul-2022
                         time          :12:24:33
 Project number                        :20024805                                                                                            
 Date of testing                       :15-Jul-2022                                                                                         
 Location                              :Hong Kong Offshore Wind Farm Project                                                                
 Test name                             :CPT-2001
 Penetrometer                          :F7.5CKE2HAW2/B/3285
 Serial no                             :1701-3285

 Table description:
 Column ID                             :Parameter name
 ___________________________________________________________________________________
 Rec                                   :Record ID, Record ID [-]
 Depth                                 :Depth, Depth [m]
 Time                                  :Time, Time [s]
 Cone                                  :Cone Resistance, Cone Resistance [MPa]
 Friction                              :Sleeve Friction, Sleeve Friction [MPa]
 Pore 2                                :Porewater Pressure, Porewater Pressure at Shoulder [MPa]
 HydroPress                            :Hydrostatic Pressure, Hydrostatic Pressure [MPa]
 qt                                    :Total Cone Resistance, Total Cone Resistance [MPa]
 Fric_ratio                            :Friction Ratio, Friction Ratio [%]
 SigmaVert                             :Vertical stress, Vertical stress [kPa] as specified in ground model
 Qnet                                  :Net Cone Resistance, Net Cone Resistance [MPa], unit weight as specified in ground model
 Bq                                    :Porewater Pressure Ratio, Porewater Pressure Ratio [-], unit weight as specified in ground model


 Data table:
  Rec    Depth      Time       Cone   Friction     Pore 2 HydroPress         qt Fric_ratio  SigmaVert       Qnet         Bq
   No        m         s        MPa        MPa        MPa        MPa        MPa          %        kPa        MPa          -
    1    0.000   1754.41     0.0000                           0.0000     0.0000                0.0000     0.0000           
    2    0.020   1755.36     0.0084                0.0005     0.0002     0.0086                0.3200     0.0083     0.0251
    3    0.040   1756.36     0.0072                0.0010     0.0004     0.0076                0.6400     0.0069     0.0700
    4    0.060   1757.29     0.0096                0.0007     0.0006     0.0100                0.9600     0.0090     0.0434
    5    0.080   1758.25     0.0099               -0.0005     0.0008     0.0099                1.2800     0.0086    -0.0975
    6    0.100   1759.23     0.0098               -0.0025     0.0010     0.0089                1.6000     0.0073    -0.4946
    7    0.120   1760.20     0.0103     0.0008    -0.0027     0.0012     0.0093     8.1715     1.9200     0.0074    -0.5072
    8    0.140   1762.87     0.0109     0.0013    -0.0017     0.0014     0.0101    11.8500     2.2400     0.0078    -0.4483
    9    0.160   1765.93     0.0111     0.0011    -0.0008     0.0016     0.0107    10.4312     2.5600     0.0081    -0.3501
   10    0.180   1768.99     0.0113     0.0008     0.0001     0.0018     0.0112     7.0954     2.8800     0.0083    -0.2518
   11    0.200   1772.04     0.0115     0.0009     0.0011     0.0020     0.0118     8.2083     3.2000     0.0086    -0.1536
   12    0.220   1774.64     0.0113     0.0011     0.0018     0.0022     0.0120     9.7975     3.5200     0.0085    -0.0734
   13    0.240   1775.62     0.0087     0.0010     0.0024     0.0024     0.0096    11.1540     3.8400     0.0058    -0.0236
   14    0.260   1776.65     0.0098     0.0010     0.0029     0.0026     0.0111     9.3747     4.1600     0.0069     0.0546
   15    0.280   1777.67     0.0106     0.0010     0.0018     0.0028     0.0115    10.5612     4.4800     0.0070    -0.0798
   16    0.300   1778.64     0.0128     0.0009     0.0024     0.0030     0.0137     6.6760     4.8000     0.0089    -0.0939
   17    0.320   1779.61     0.0110     0.0009     0.0031     0.0032     0.0121     6.9043     5.1200     0.0070    -0.0925
   18    0.340   1780.58     0.0100     0.0009     0.0043     0.0034     0.0116    10.0226     5.4400     0.0062     0.0780
   19    0.360   1781.58     0.0096     0.0010     0.0030     0.0036     0.0110    10.3323     5.7600     0.0052    -0.0383
   20    0.380   1782.57     0.0114     0.0009     0.0025     0.0038     0.0126     7.9960     6.0800     0.0065    -0.1508
   21    0.400   1783.51     0.0137     0.0009     0.0043     0.0040     0.0154     6.7535     6.4000     0.0090     0.0136
   22    0.420   1784.43     0.0130     0.0009     0.0044     0.0042     0.0152     6.6785     6.7200     0.0085     0.1082
   23    0.440   1785.41     0.0146     0.0007     0.0049     0.0044     0.0165     4.5713     7.0400     0.0095     0.0122
   24    0.460   1786.38     0.0181     0.0010     0.0041     0.0046     0.0199     6.1251     7.3600     0.0126    -0.0098
   25    0.480   1787.35     0.0203     0.0014     0.0028     0.0048     0.0218     8.3445     7.6800     0.0142    -0.0800
   26    0.500   1788.32     0.0187     0.0011     0.0017     0.0050     0.0195     6.2677     8.0000     0.0115    -0.2811
   27    0.520   1789.29     0.0219     0.0013     0.0039     0.0052     0.0230     6.0757     8.3200     0.0147    -0.1718
   28    0.540   1790.26     0.0233     0.0013     0.0031     0.0054     0.0248     6.5579     8.6400     0.0162    -0.0964
   29    0.560   1791.19     0.0238     0.0012     0.0053     0.0056     0.0255     5.1711     8.9600     0.0166    -0.0825
   30    0.580   1792.14     0.0210     0.0013     0.0078     0.0058     0.0242     5.7201     9.2800     0.0149     0.1287
   31    0.600   1793.11     0.0200     0.0013     0.0048     0.0060     0.0219     6.2691     9.6000     0.0123    -0.1287
   32    0.620   1794.09     0.0214     0.0017     0.0038     0.0062     0.0230     7.9357     9.9200     0.0131    -0.1716
   33    0.640   1795.10     0.0223     0.0016     0.0029     0.0064     0.0236     7.2507    10.2400     0.0133    -0.2598
   34    0.660   1796.61     0.0236     0.0016     0.0054     0.0066     0.0257     6.9514    10.5600     0.0151    -0.1073
   35    0.680   1800.41     0.0235     0.0016     0.0065     0.0068     0.0261     6.9865    10.8800     0.0152    -0.0448
   36    0.700   1804.22     0.0234     0.0017     0.0077     0.0070     0.0265     7.3462    11.2000     0.0153     0.0178
   37    0.720   1807.19     0.0227     0.0017     0.0076     0.0072     0.0260     7.4474    11.5200     0.0145     0.0399
   38    0.740   1808.14     0.0229     0.0015     0.0081     0.0074     0.0262     6.6511    11.8400     0.0144     0.0340
   39    0.760   1809.50     0.0228     0.0013     0.0099     0.0076     0.0268     5.9455    12.1600     0.0146     0.1282
   40    0.780   1827.80     0.0253     0.0015     0.0101     0.0078     0.0295     7.5515    12.4800     0.0170     0.1323
   41    0.800   1848.90     0.0276     0.0016     0.0108     0.0080     0.0318     7.9117    12.8000     0.0190     0.1136
   42    0.820   1851.75     0.0293     0.0016     0.0132     0.0082     0.0345     6.0456    13.1200     0.0214     0.1931
   43    0.840   1852.67     0.0309     0.0015     0.0155     0.0084     0.0371     4.6431    13.4400     0.0237     0.2723
   44    0.860   1853.64     0.0380     0.0020     0.0135     0.0086     0.0443     5.4694    13.7600     0.0305     0.2060
   45    0.880   1854.61     0.0388     0.0018     0.0125     0.0088     0.0443     4.7768    14.0800     0.0303     0.1447
   46    0.900   1855.56     0.0410     0.0020     0.0090     0.0090     0.0456     4.8247    14.4000     0.0312     0.0643
   47    0.920   1856.52     0.0419     0.0025     0.0067     0.0092     0.0449     6.0729    14.7200     0.0302    -0.0609
   48    0.940   1857.49     0.0429     0.0025     0.0071     0.0094     0.0456     5.8072    15.0400     0.0306    -0.0952
   49    0.960   1858.45     0.0419     0.0025     0.0088     0.0096     0.0455     5.7050    15.3600     0.0301    -0.0358
   50    0.980   1859.42     0.0425     0.0026     0.0071     0.0098     0.0457     6.1428    15.6800     0.0301    -0.0715
   51    1.000   1860.34     0.0464     0.0023     0.0076     0.0100     0.0493     5.0853    16.0000     0.0333    -0.0920
   52    1.020   1861.34     0.0409     0.0026     0.0114     0.0102     0.0451     5.9404    16.3200     0.0288    -0.0081
   53    1.040   1862.31     0.0439     0.0027     0.0137     0.0104     0.0496     6.5158    16.6400     0.0329     0.0919
   54    1.060   1863.25     0.0408     0.0030     0.0143     0.0106     0.0467     7.8374    16.9600     0.0298     0.1176
   55    1.080   1864.22     0.0411     0.0028     0.0150     0.0108     0.0472     6.6209    17.2800     0.0299     0.1283
   56    1.100   1865.19     0.0434     0.0025     0.0150     0.0110     0.0498     5.8644    17.6000     0.0322     0.1302
   57    1.120   1866.17     0.0405     0.0026     0.0142     0.0112     0.0466     5.9748    17.9200     0.0287     0.1145
   58    1.140   1867.13     0.0435     0.0026     0.0156     0.0114     0.0498     6.0852    18.2400     0.0316     0.1123
   59    1.160   1868.10     0.0403     0.0027     0.0173     0.0116     0.0474     6.3887    18.5600     0.0289     0.1854
   60    1.180   1869.11     0.0438     0.0027     0.0167     0.0118     0.0510     6.5635    18.8800     0.0321     0.1640
   61    1.200   1870.04     0.0417     0.0028     0.0146     0.0120     0.0484     6.5196    19.2000     0.0292     0.1371
   62    1.220   1872.29     0.0438     0.0029     0.0156     0.0122     0.0502     6.4757    19.5200     0.0307     0.1004
   63    1.240   1875.14     0.0426     0.0028     0.0165     0.0124     0.0494     6.2745    19.8400     0.0296     0.1290
   64    1.260   1878.00     0.0415     0.0028     0.0174     0.0126     0.0486     6.3602    20.1600     0.0285     0.1575
   65    1.280   1881.76     0.0429     0.0027     0.0176     0.0128     0.0503     6.4863    20.4800     0.0298     0.1612
   66    1.300   1889.49     0.0424     0.0029     0.0174     0.0130     0.0497     6.7237    20.8000     0.0289     0.1543
   67    1.320   1897.23     0.0419     0.0027     0.0173     0.0132     0.0492     6.3651    21.1200     0.0281     0.1475
   68    1.340   1902.72     0.0413     0.0027     0.0161     0.0134     0.0483     6.4751    21.4400     0.0269     0.1201
   69    1.360   1903.69     0.0406     0.0026     0.0163     0.0136     0.0472     6.2375    21.7600     0.0255     0.0903
   70    1.380   1908.54     0.0419     0.0023     0.0200     0.0138     0.0497     6.4369    22.0800     0.0276     0.1668
   71    1.400   1920.97     0.0421     0.0023     0.0244     0.0140     0.0518     6.3972    22.4000     0.0294     0.2958
   72    1.420   1930.66     0.0430     0.0024     0.0269     0.0142     0.0542     5.5774    22.7200     0.0314     0.3912
   73    1.440   1931.67     0.0415     0.0021     0.0275     0.0144     0.0530     5.0252    23.0400     0.0299     0.4335
   74    1.460   1932.66     0.0420     0.0023     0.0285     0.0146     0.0539     5.3106    23.3600     0.0305     0.4454
   75    1.480   1933.63     0.0463     0.0023     0.0276     0.0148     0.0583     5.1501    23.6800     0.0346     0.3938
   76    1.500   1934.60     0.0484     0.0023     0.0287     0.0150     0.0602     4.8226    24.0000     0.0362     0.3576
   77    1.520   1935.57     0.0501     0.0023     0.0314     0.0152     0.0630     4.6232    24.3200     0.0387     0.4012
   78    1.540   1936.50     0.0518     0.0024     0.0275     0.0154     0.0642     4.7172    24.6400     0.0396     0.3600
   79    1.560   1937.49     0.0522     0.0023     0.0252     0.0156     0.0630     4.2985    24.9600     0.0380     0.2619
   80    1.580   1938.42     0.0516     0.0023     0.0270     0.0158     0.0629     4.4974    25.2800     0.0376     0.2936
   81    1.600   1939.42     0.0530     0.0026     0.0264     0.0160     0.0637     5.0023    25.6000     0.0381     0.2517
   82    1.620   1940.35     0.0511     0.0024     0.0279     0.0162     0.0626     4.6083    25.9200     0.0366     0.3015
   83    1.640   1941.36     0.0527     0.0028     0.0294     0.0164     0.0649     5.2198    26.2400     0.0386     0.3279
   84    1.660   1942.32     0.0549     0.0023     0.0317     0.0166     0.0679     4.3749    26.5600     0.0413     0.3442
   85    1.680   1943.30     0.0570     0.0025     0.0324     0.0168     0.0706     4.4645    26.8800     0.0437     0.3578
   86    1.700   1944.29     0.0652     0.0026     0.0332     0.0170     0.0787     4.0310    27.2000     0.0515     0.2975
   87    1.720   1945.24     0.0697     0.0029     0.0338     0.0172     0.0840     4.4387    27.5200     0.0565     0.3017
   88    1.740   1946.23     0.0737     0.0031     0.0339     0.0174     0.0882     4.1534    27.8400     0.0604     0.2837
   89    1.760   1947.18     0.0791     0.0033     0.0272     0.0176     0.0913     4.2477    28.1600     0.0631     0.1823
   90    1.780   1948.16     0.0747     0.0033     0.0233     0.0178     0.0852     4.3973    28.4800     0.0567     0.1272
   91    1.800   1949.09     0.0705     0.0032     0.0245     0.0180     0.0802     4.4581    28.8000     0.0514     0.0968
   92    1.820   1950.08     0.0665     0.0029     0.0278     0.0182     0.0773     4.3700    29.1200     0.0482     0.1608
   93    1.840   1951.11     0.0637     0.0030     0.0326     0.0184     0.0769     4.5917    29.4400     0.0474     0.2739
   94    1.860   1952.06     0.0594     0.0029     0.0365     0.0186     0.0741     4.8318    29.7600     0.0443     0.3697
   95    1.880   1953.01     0.0597     0.0030     0.0394     0.0188     0.0759     5.0035    30.0800     0.0458     0.4317
   96    1.900   1953.94     0.0594     0.0028     0.0414     0.0190     0.0765     4.7144    30.4000     0.0461     0.4705
   97    1.920   1954.89     0.0605     0.0029     0.0429     0.0192     0.0783     4.8388    30.7200     0.0476     0.4900
   98    1.940   1955.89     0.0619     0.0027     0.0432     0.0194     0.0801     4.4109    31.0400     0.0491     0.4864
   99    1.960   1956.84     0.0612     0.0029     0.0442     0.0196     0.0795     4.8139    31.3600     0.0481     0.4990
  100    1.980   1957.83     0.0575     0.0030     0.0455     0.0198     0.0765     5.2863    31.6800     0.0448     0.5675
  101    2.000   1958.78     0.0565     0.0029     0.0469     0.0200     0.0760     4.9807    32.0000     0.0440     0.5994
  102    2.020   1959.74     0.0610     0.0029     0.0489     0.0202     0.0812     4.8854    32.3200     0.0489     0.5717
  103    2.040   1960.69     0.0717     0.0033     0.0518     0.0204     0.0930     5.0448    32.6400     0.0604     0.5055
  104    2.060   1961.65     0.0833     0.0032     0.0542     0.0206     0.1060     3.9705    32.9600     0.0731     0.4587
  105    2.080   1962.62     0.0913     0.0035     0.0504     0.0208     0.1128     3.9679    33.2800     0.0796     0.3843
  106    2.100   1963.59     0.0985     0.0043     0.0470     0.0210     0.1185     4.5449    33.6000     0.0849     0.3163
  107    2.120   1964.58     0.1117     0.0045     0.0500     0.0212     0.1325     4.1277    33.9200     0.0986     0.2874
  108    2.140   1965.54     0.1092     0.0046     0.0476     0.0214     0.1302     4.1315    34.2400     0.0959     0.2977
  109    2.160   1966.50     0.1053     0.0046     0.0384     0.0216     0.1220     4.3417    34.5600     0.0874     0.2055
  110    2.180   1967.47     0.0955     0.0046     0.0352     0.0218     0.1103     4.7728    34.8800     0.0754     0.1774
  111    2.200   1968.43     0.0935     0.0047     0.0394     0.0220     0.1088     4.9851    35.2000     0.0736     0.1973
  112    2.220   1969.41     0.0958     0.0047     0.0463     0.0222     0.1139     5.0391    35.5200     0.0784     0.2656
  113    2.240   1970.37     0.1016     0.0045     0.0523     0.0224     0.1226     4.5418    35.8400     0.0867     0.3182
  114    2.260   1971.38     0.0978     0.0044     0.0557     0.0226     0.1210     4.4394    36.1600     0.0848     0.3832
  115    2.280   1972.31     0.0983     0.0043     0.0568     0.0228     0.1221     4.3892    36.4800     0.0856     0.3948
  116    2.300   1973.32     0.1008     0.0040     0.0564     0.0230     0.1248     3.9187    36.8000     0.0880     0.3861
  117    2.320   1974.24     0.1020     0.0041     0.0560     0.0232     0.1255     4.0536    37.1200     0.0884     0.3722
  118    2.340   1975.20     0.1028     0.0039     0.0547     0.0234     0.1257     3.8665    37.4400     0.0883     0.3544
  119    2.360   1976.19     0.1051     0.0043     0.0534     0.0236     0.1280     4.0747    37.7600     0.0902     0.3420
  120    2.380   1977.14     0.1034     0.0044     0.0527     0.0238     0.1258     4.2194    38.0800     0.0878     0.3378
  121    2.400   1978.10     0.1045     0.0045     0.0494     0.0240     0.1257     4.3570    38.4000     0.0873     0.3050
  122    2.420   1979.10     0.1062     0.0045     0.0503     0.0242     0.1274     4.2389    38.7200     0.0887     0.2972
  123    2.440   1980.04     0.1107     0.0048     0.0526     0.0244     0.1323     4.4543    39.0400     0.0933     0.2895
  124    2.460   1981.05     0.1119     0.0049     0.0546     0.0246     0.1349     4.3333    39.3600     0.0956     0.3169
  125    2.480   1981.96     0.1100     0.0048     0.0530     0.0248     0.1326     4.3286    39.6800     0.0929     0.3119
  126    2.500   1982.92     0.1097     0.0046     0.0534     0.0250     0.1318     4.2388    40.0000     0.0918     0.3010
  127    2.520   1983.90     0.1113     0.0051     0.0550     0.0252     0.1342     4.5245    40.3200     0.0939     0.3124
  128    2.540   1984.86     0.1110     0.0050     0.0551     0.0254     0.1340     4.4947    40.6400     0.0933     0.3126
  129    2.560   1985.83     0.1105     0.0051     0.0559     0.0256     0.1339     4.7033    40.9600     0.0929     0.3247
  130    2.580   1986.81     0.1081     0.0051     0.0558     0.0258     0.1315     4.6769    41.2800     0.0902     0.3322
  131    2.600   1987.81     0.1106     0.0050     0.0553     0.0260     0.1340     4.5409    41.6000     0.0924     0.3212
  132    2.620   1988.76     0.1093     0.0050     0.0508     0.0262     0.1312     4.4806    41.9200     0.0893     0.2910
  133    2.640   1989.70     0.1096     0.0051     0.0512     0.0264     0.1311     4.6732    42.2400     0.0889     0.2783
  134    2.660   1990.67     0.1088     0.0048     0.0513     0.0266     0.1303     4.4332    42.5600     0.0877     0.2813
