

 Program UNIPLOT                         version 05.36.02
 _______________
 (c) Fugro Netherlands Marine, Nootdorp, The Netherlands


 ASCII representation of data plotted on a graph.

 This ASCII file presents data interpolated to values per fixed depth interval.
 The data are corrected for the depth-offset differences between the various 
 transducers in the penetrometer.

 The records at the start of penetration may include no values or anomalous
 values where a depth offset implies incomplete penetration of a particular
 sensor into the ground.

 The records at the end of penetration may include no values for data channels
 where the transducer did not reach this depth.

 The reference level for test values is (1) the ground surface for onshore tests and (2) the seafloor for nearshore and offshore tests.

 UNICAS data file          : CPT-1037(S).002                         
 Output using command file : PlotASCII.cmd

 ASCII file created at : date          :24-May-2022
                         time          :16:07:24
 Project number                        :20024805                                                                                            
 Date of testing                       :23-Apr-2022                                                                                         
 Location                              :Hong Kong Offshore Wind Farm Project                                                                
 Test name                             :CPT-1037(S)
 Penetrometer                          :F7.5CKE2X3S\B\2753
 Serial no                             :1701-2753

 Table description:
 Column ID                             :Parameter name
 ___________________________________________________________________________________
 Rec                                   :Record ID, Record ID [-]
 Depth                                 :Depth, Depth [m]
 Time                                  :Time, Time [s]
 Cone                                  :Cone Resistance, Cone Resistance [MPa]
 Friction                              :Sleeve Friction, Sleeve Friction [MPa]
 Pore 2                                :Porewater Pressure, Porewater Pressure at Shoulder [MPa]
 HydroPress                            :Hydrostatic Pressure, Hydrostatic Pressure [MPa]
 qt                                    :Total Cone Resistance, Total Cone Resistance [MPa]
 Fric_ratio                            :Friction Ratio, Friction Ratio [%]
 SigmaVert                             :Vertical stress, Vertical stress [kPa] as specified in ground model
 Qnet                                  :Net Cone Resistance, Net Cone Resistance [MPa], unit weight as specified in ground model
 Bq                                    :Porewater Pressure Ratio, Porewater Pressure Ratio [-], unit weight as specified in ground model


 Data table:
  Rec    Depth      Time       Cone   Friction     Pore 2 HydroPress         qt Fric_ratio  SigmaVert       Qnet         Bq
   No        m         s        MPa        MPa        MPa        MPa        MPa          %        kPa        MPa          -
    1    0.000   1302.50     0.0000                           0.0000     0.0000                0.0000     0.0000           
    2    0.020   1358.38     0.0014                           0.0002     0.0014                0.3200     0.0011    -0.3454
    3    0.040   1442.81     0.0030                0.0007     0.0004     0.0032                0.6400     0.0026     0.0023
    4    0.060   1454.47     0.0043                0.0010     0.0006     0.0047                0.9600     0.0037     0.1118
    5    0.080   1459.47     0.0052     0.0004     0.0011     0.0008     0.0056    10.4678     1.2800     0.0043     0.0699
    6    0.100   1464.47     0.0061     0.0005     0.0011     0.0010     0.0066    11.6463     1.6000     0.0050     0.0281
    7    0.120   1467.90     0.0064     0.0006     0.0015     0.0012     0.0070     8.7337     1.9200     0.0050     0.0310
    8    0.140   1470.71     0.0067     0.0006     0.0019     0.0014     0.0074     8.9310     2.2400     0.0052     0.0708
    9    0.160   1475.53     0.0071     0.0006     0.0024     0.0016     0.0080     9.0240     2.5600     0.0055     0.1114
   10    0.180   1478.09     0.0071     0.0007     0.0029     0.0018     0.0083     9.8053     2.8800     0.0054     0.1702
   11    0.200   1479.07     0.0079     0.0007     0.0032     0.0020     0.0092     9.5922     3.2000     0.0060     0.1943
   12    0.220   1480.03     0.0088     0.0008     0.0038     0.0022     0.0103     9.2353     3.5200     0.0067     0.1906
   13    0.240   1480.96     0.0094     0.0008     0.0045     0.0024     0.0112     9.4492     3.8400     0.0074     0.2541
   14    0.260   1481.93     0.0098     0.0008     0.0046     0.0026     0.0117     8.5621     4.1600     0.0075     0.2584
   15    0.280   1482.89     0.0087     0.0008     0.0043     0.0028     0.0106     8.8456     4.4800     0.0061     0.2835
   16    0.300   1483.85     0.0097     0.0009     0.0039     0.0030     0.0113     9.9772     4.8000     0.0065     0.1249
   17    0.320   1484.79     0.0100     0.0009     0.0044     0.0032     0.0117     9.0233     5.1200     0.0066     0.1574
   18    0.340   1485.74     0.0116     0.0011     0.0061     0.0034     0.0139     9.8164     5.4400     0.0084     0.2409
   19    0.360   1486.73     0.0144     0.0012     0.0063     0.0036     0.0170     9.2497     5.7600     0.0112     0.2398
   20    0.380   1487.66     0.0169     0.0013     0.0068     0.0038     0.0196     8.1708     6.0800     0.0135     0.1978
   21    0.400   1488.59     0.0168     0.0014     0.0039     0.0040     0.0198     8.4401     6.4000     0.0134     0.2315
   22    0.420   1489.56     0.0180     0.0015     0.0039     0.0042     0.0192     8.4123     6.7200     0.0125    -0.0994
   23    0.440   1490.52     0.0188     0.0015     0.0051     0.0044     0.0208     8.1623     7.0400     0.0137     0.0248
   24    0.460   1491.49     0.0173     0.0016     0.0067     0.0046     0.0199     9.1850     7.3600     0.0125     0.1349
   25    0.480   1492.46     0.0162     0.0016     0.0075     0.0048     0.0192     9.8218     7.6800     0.0116     0.2116
   26    0.500   1493.42     0.0148     0.0017     0.0078     0.0050     0.0180    10.7223     8.0000     0.0100     0.2748
   27    0.520   1494.36     0.0140     0.0016     0.0080     0.0052     0.0173    11.3910     8.3200     0.0090     0.3040
   28    0.540   1495.33     0.0141     0.0017     0.0084     0.0054     0.0175    12.0993     8.6400     0.0089     0.3152
   29    0.560   1496.28     0.0139     0.0017     0.0090     0.0056     0.0176    12.5130     8.9600     0.0086     0.3708
   30    0.580   1497.22     0.0142     0.0018     0.0100     0.0058     0.0182    12.8102     9.2800     0.0090     0.4226
   31    0.600   1498.18     0.0150     0.0018     0.0106     0.0060     0.0195    12.5411     9.6000     0.0099     0.4602
   32    0.620   1499.12     0.0162     0.0018     0.0104     0.0062     0.0206    12.1173     9.9200     0.0107     0.3979
   33    0.640   1500.05     0.0164     0.0019     0.0103     0.0064     0.0207    11.6935    10.2400     0.0105     0.3766
   34    0.660   1501.01     0.0163     0.0020     0.0109     0.0066     0.0207    12.0353    10.5600     0.0102     0.3991
   35    0.680   1501.98     0.0169     0.0022     0.0114     0.0068     0.0217    11.1869    10.8800     0.0108     0.4140
   36    0.700   1502.95     0.0313     0.0023     0.0106     0.0070     0.0362     8.6633    11.2000     0.0250     0.1853
   37    0.720   1507.21     0.0699     0.0023     0.0072     0.0072     0.0734     7.0446    11.5200     0.0619     0.1010
   38    0.740   1511.66     0.1097     0.0020     0.0038     0.0074     0.1118     6.1031    11.8400     0.0999     0.0205
   39    0.760   1515.25     0.1370     0.0020    -0.0013     0.0076     0.1381     1.9723    12.1600     0.1259    -0.0404
   40    0.780   1522.74     0.1045     0.0022    -0.0115     0.0078     0.0978     1.9177    12.4800     0.0854    -0.2662
   41    0.800   1554.01     0.0830     0.0019     0.0012     0.0080     0.0817     1.7022    12.8000     0.0689    -0.1283
   42    0.820   1580.66     0.0638     0.0017     0.0093     0.0082     0.0672     2.2814    13.1200     0.0541    -0.0017
   43    0.840   1581.62     0.0657     0.0018     0.0097     0.0084     0.0694     2.7398    13.4400     0.0559     0.0074
   44    0.860   1582.58     0.0336     0.0020     0.0036     0.0086     0.0379     4.8368    13.7600     0.0241     0.0393
   45    0.880   1583.56     0.0251     0.0020     0.0151     0.0088     0.0331     7.4190    14.0800     0.0190     0.5390
   46    0.900   1584.53     0.0245     0.0020     0.0145     0.0090     0.0317     7.6195    14.4000     0.0173     0.4660
   47    0.920   1585.45     0.0251     0.0018     0.0174     0.0092     0.0319     7.2008    14.7200     0.0172     0.4012
   48    0.940   1586.42     0.0242     0.0018     0.0196     0.0094     0.0323     7.1207    15.0400     0.0172     0.5639
   49    0.960   1587.39     0.0245     0.0019     0.0203     0.0096     0.0330     7.6806    15.3600     0.0176     0.5982
   50    0.980   1588.35     0.0260     0.0020     0.0211     0.0098     0.0347     7.9460    15.6800     0.0190     0.5784
   51    1.000   1589.29     0.0280     0.0021     0.0214     0.0100     0.0371     7.7110    16.0000     0.0211     0.5438
   52    1.020   1590.22     0.0299     0.0022     0.0207     0.0102     0.0387     7.6161    16.3200     0.0224     0.4798
   53    1.040   1591.19     0.0304     0.0024     0.0210     0.0104     0.0393     7.8111    16.6400     0.0226     0.4765
   54    1.060   1592.12     0.0298     0.0024     0.0205     0.0106     0.0385     7.9633    16.9600     0.0215     0.4663
   55    1.080   1593.09     0.0304     0.0024     0.0208     0.0108     0.0390     7.7832    17.2800     0.0217     0.4533
   56    1.100   1594.06     0.0314     0.0023     0.0221     0.0110     0.0405     7.6055    17.6000     0.0229     0.4629
   57    1.120   1595.03     0.0321     0.0023     0.0243     0.0112     0.0421     7.1724    17.9200     0.0242     0.5235
   58    1.140   1596.00     0.0335     0.0022     0.0244     0.0114     0.0439     6.4958    18.2400     0.0257     0.5187
   59    1.160   1596.92     0.0353     0.0022     0.0226     0.0116     0.0447     6.3084    18.5600     0.0261     0.4118
   60    1.180   1597.90     0.0363     0.0023     0.0233     0.0118     0.0461     6.3592    18.8800     0.0272     0.4246
   61    1.200   1598.82     0.0355     0.0023     0.0234     0.0120     0.0453     6.5095    19.2000     0.0261     0.4341
   62    1.220   1599.79     0.0336     0.0024     0.0230     0.0122     0.0434     6.8724    19.5200     0.0239     0.4620
   63    1.240   1600.74     0.0330     0.0024     0.0230     0.0124     0.0427     7.2489    19.8400     0.0229     0.4643
   64    1.260   1601.69     0.0321     0.0024     0.0200     0.0126     0.0413     7.3649    20.1600     0.0212     0.4364
   65    1.280   1602.63     0.0308     0.0024     0.0237     0.0128     0.0409     7.5644    20.4800     0.0204     0.5486
   66    1.300   1603.59     0.0309     0.0024     0.0273     0.0130     0.0420     7.6776    20.8000     0.0212     0.6335
   67    1.320   1604.56     0.0300     0.0024     0.0288     0.0132     0.0420     7.9259    21.1200     0.0209     0.7360
   68    1.340   1605.48     0.0303     0.0023     0.0294     0.0134     0.0426     7.7313    21.4400     0.0212     0.7517
   69    1.360   1606.45     0.0314     0.0024     0.0298     0.0136     0.0438     7.6475    21.7600     0.0220     0.7262
   70    1.380   1607.43     0.0329     0.0024     0.0300     0.0138     0.0454     7.5169    22.0800     0.0234     0.6868
   71    1.400   1608.40     0.0341     0.0024     0.0311     0.0140     0.0470     6.9352    22.4000     0.0246     0.6856
   72    1.420   1609.37     0.0339     0.0024     0.0317     0.0142     0.0471     6.9072    22.7200     0.0244     0.7045
   73    1.440   1610.32     0.0324     0.0024     0.0314     0.0144     0.0458     7.4776    23.0400     0.0228     0.7737
   74    1.460   1611.24     0.0314     0.0024     0.0304     0.0146     0.0441     7.7035    23.3600     0.0208     0.7515
   75    1.480   1612.21     0.0299     0.0025     0.0322     0.0148     0.0429     8.3508    23.6800     0.0192     0.8335
   76    1.500   1613.18     0.0302     0.0024     0.0341     0.0150     0.0440     8.1290    24.0000     0.0200     0.8981
   77    1.520   1614.15     0.0313     0.0024     0.0338     0.0152     0.0458     7.5991    24.3200     0.0215     0.8974
   78    1.540   1615.11     0.0331     0.0024     0.0326     0.0154     0.0468     7.2406    24.6400     0.0222     0.7814
   79    1.560   1616.03     0.0357     0.0025     0.0347     0.0156     0.0498     7.0478    24.9600     0.0248     0.7218
   80    1.580   1617.01     0.0375     0.0025     0.0352     0.0158     0.0527     6.6831    25.2800     0.0274     0.7391
   81    1.600   1617.98     0.0370     0.0026     0.0332     0.0160     0.0508     6.8858    25.6000     0.0252     0.6701
   82    1.620   1618.90     0.0368     0.0026     0.0331     0.0162     0.0507     6.8943    25.9200     0.0248     0.6834
   83    1.640   1619.87     0.0351     0.0026     0.0338     0.0164     0.0492     7.4077    26.2400     0.0230     0.7467
   84    1.660   1620.85     0.0358     0.0026     0.0349     0.0166     0.0502     7.3955    26.5600     0.0237     0.7543
   85    1.680   1621.82     0.0390     0.0026     0.0365     0.0168     0.0541     6.9750    26.8800     0.0272     0.6987
   86    1.700   1622.77     0.0423     0.0025     0.0382     0.0170     0.0581     6.0572    27.2000     0.0309     0.6732
   87    1.720   1623.72     0.0431     0.0026     0.0376     0.0172     0.0590     6.0068    27.5200     0.0315     0.6591
   88    1.740   1624.67     0.0418     0.0027     0.0352     0.0174     0.0571     6.3467    27.8400     0.0293     0.6515
   89    1.760   1625.67     0.0395     0.0027     0.0350     0.0176     0.0540     6.7517    28.1600     0.0259     0.6615
   90    1.780   1626.63     0.0375     0.0029     0.0353     0.0178     0.0524     7.5913    28.4800     0.0239     0.7386
   91    1.800   1627.56     0.0374     0.0028     0.0374     0.0180     0.0530     7.4810    28.8000     0.0242     0.7847
   92    1.820   1628.53     0.0388     0.0028     0.0387     0.0182     0.0549     7.2334    29.1200     0.0258     0.7818
   93    1.840   1629.50     0.0398     0.0025     0.0401     0.0184     0.0565     6.4437    29.4400     0.0270     0.7887
   94    1.860   1630.47     0.0443     0.0027     0.0405     0.0186     0.0614     6.5429    29.7600     0.0316     0.6953
   95    1.880   1631.40     0.0447     0.0028     0.0399     0.0188     0.0614     6.1562    30.0800     0.0313     0.6700
   96    1.900   1632.41     0.0441     0.0028     0.0397     0.0190     0.0608     6.4139    30.4000     0.0304     0.6861
   97    1.920   1633.38     0.0443     0.0028     0.0369     0.0192     0.0608     6.2442    30.7200     0.0301     0.6680
   98    1.940   1634.35     0.0478     0.0030     0.0355     0.0194     0.0623     6.4180    31.0400     0.0312     0.4801
   99    1.960   1635.29     0.0457     0.0032     0.0398     0.0196     0.0619     6.7054    31.3600     0.0305     0.6230
  100    1.980   1636.26     0.0444     0.0032     0.0418     0.0198     0.0616     7.3043    31.6800     0.0299     0.7055
  101    2.000   1637.23     0.0466     0.0032     0.0422     0.0200     0.0640     6.8897    32.0000     0.0320     0.6709
  102    2.020   1638.17     0.0494     0.0031     0.0447     0.0202     0.0678     6.3752    32.3200     0.0355     0.6614
  103    2.040   1639.08     0.0521     0.0031     0.0454     0.0204     0.0709     6.0441    32.6400     0.0382     0.6383
  104    2.060   1640.05     0.0531     0.0031     0.0480     0.0206     0.0728     5.8227    32.9600     0.0399     0.6610
  105    2.080   1641.03     0.0536     0.0031     0.0494     0.0208     0.0747     5.8376    33.2800     0.0415     0.7108
  106    2.100   1642.00     0.0557     0.0032     0.0491     0.0210     0.0761     5.7477    33.6000     0.0425     0.6527
  107    2.120   1642.97     0.0562     0.0032     0.0479     0.0212     0.0765     5.7883    33.9200     0.0425     0.6386
  108    2.140   1643.94     0.0560     0.0031     0.0465     0.0214     0.0756     5.4778    34.2400     0.0413     0.6082
  109    2.160   1644.91     0.0546     0.0031     0.0492     0.0216     0.0747     5.6261    34.5600     0.0402     0.6560
  110    2.180   1645.89     0.0527     0.0031     0.0523     0.0218     0.0745     5.7004    34.8800     0.0396     0.7582
  111    2.200   1646.84     0.0507     0.0031     0.0556     0.0220     0.0733     5.9879    35.2000     0.0381     0.8380
  112    2.220   1647.76     0.0519     0.0030     0.0584     0.0222     0.0763     6.0179    35.5200     0.0408     0.8807
  113    2.240   1648.73     0.0610     0.0033     0.0556     0.0224     0.0849     5.6251    35.8400     0.0491     0.7050
  114    2.260   1649.73     0.0700     0.0035     0.0503     0.0226     0.0923     5.0786    36.1600     0.0561     0.5416
  115    2.280   1650.70     0.0742     0.0036     0.0495     0.0228     0.0951     4.9460    36.4800     0.0586     0.4617
  116    2.300   1651.67     0.0727     0.0038     0.0450     0.0230     0.0934     5.3179    36.8000     0.0566     0.4661
  117    2.320   1652.60     0.0722     0.0040     0.0444     0.0232     0.0882     5.7333    37.1200     0.0511     0.2929
  118    2.340   1653.57     0.0673     0.0042     0.0522     0.0234     0.0878     6.1258    37.4400     0.0504     0.5070
  119    2.360   1654.55     0.0667     0.0040     0.0586     0.0236     0.0904     6.1301    37.7600     0.0527     0.6238
  120    2.380   1655.56     0.0665     0.0038     0.0626     0.0238     0.0926     5.7109    38.0800     0.0545     0.7033
  121    2.400   1657.56     0.0664     0.0035     0.0630     0.0240     0.0928     5.2361    38.4000     0.0544     0.7153
  122    2.420   1660.53     0.0669     0.0033     0.0632     0.0242     0.0934     5.0233    38.7200     0.0547     0.7122
  123    2.440   1663.49     0.0674     0.0033     0.0632     0.0244     0.0940     4.9702    39.0400     0.0550     0.7091
  124    2.460   1664.81     0.0669     0.0033     0.0619     0.0246     0.0932     4.8605    39.3600     0.0539     0.7053
  125    2.480   1665.82     0.0683     0.0032     0.0602     0.0248     0.0938     4.7626    39.6800     0.0541     0.6629
  126    2.500   1666.79     0.0690     0.0033     0.0585     0.0250     0.0936     4.8165    40.0000     0.0536     0.6257
  127    2.520   1667.71     0.0688     0.0033     0.0601     0.0252     0.0941     4.8743    40.3200     0.0538     0.6501
  128    2.540   1668.62     0.0675     0.0035     0.0625     0.0254     0.0931     5.3898    40.6400     0.0524     0.6777
  129    2.560   1669.59     0.0631     0.0038     0.0615     0.0256     0.0887     5.9054    40.9600     0.0477     0.7384
  130    2.580   1670.56     0.0660     0.0038     0.0623     0.0258     0.0926     5.9922    41.2800     0.0513     0.7301
  131    2.600   1671.53     0.0706     0.0039     0.0627     0.0260     0.0976     5.4909    41.6000     0.0560     0.6837
  132    2.620   1672.46     0.0708     0.0038     0.0645     0.0262     0.0983     5.4074    41.9200     0.0564     0.6956
  133    2.640   1691.17     0.0797     0.0038     0.0601     0.0264     0.1056     5.3311    42.2400     0.0633     0.5777
  134    2.660   1710.76     0.0890     0.0038     0.0558     0.0266     0.1130     5.3879    42.5600     0.0705     0.4493
