

 Program UNIPLOT                         version 05.36.02
 _______________
 (c) Fugro Netherlands Marine, Nootdorp, The Netherlands


 ASCII representation of data plotted on a graph.

 This ASCII file presents data interpolated to values per fixed depth interval.
 The data are corrected for the depth-offset differences between the various 
 transducers in the penetrometer.

 The records at the start of penetration may include no values or anomalous
 values where a depth offset implies incomplete penetration of a particular
 sensor into the ground.

 The records at the end of penetration may include no values for data channels
 where the transducer did not reach this depth.

 The reference level for test values is (1) the ground surface for onshore tests and (2) the seafloor for nearshore and offshore tests.

 UNICAS data file          : CPT-2019.000                            
 Output using command file : PlotASCII.cmd

 ASCII file created at : date          :06-May-2022
                         time          :10:32:12
 Project number                        :20024805
 Date of testing                       :28-Apr-2022
 Location                              :Hong Kong Offshore Wind Farm Project
 Test name                             :CPT-2019
 Penetrometer                          :F7.5CKE2HAW2/B/3285
 Serial no                             :1701-3285

 Table description:
 Column ID                             :Parameter name
 ___________________________________________________________________________________
 Rec                                   :Record ID, Record ID [-]
 Depth                                 :Depth, Depth [m]
 Time                                  :Time, Time [s]
 Cone                                  :Cone Resistance, Cone Resistance [MPa]
 Friction                              :Sleeve Friction, Sleeve Friction [MPa]
 Pore 2                                :Porewater Pressure, Porewater Pressure at Shoulder [MPa]
 HydroPress                            :Hydrostatic Pressure, Hydrostatic Pressure [MPa]
 qt                                    :Total Cone Resistance, Total Cone Resistance [MPa]
 Fric_ratio                            :Friction Ratio, Friction Ratio [%]
 SigmaVert                             :Vertical stress, Vertical stress [kPa] as specified in ground model
 Qnet                                  :Net Cone Resistance, Net Cone Resistance [MPa], unit weight as specified in ground model
 Bq                                    :Porewater Pressure Ratio, Porewater Pressure Ratio [-], unit weight as specified in ground model


 Data table:
  Rec    Depth      Time       Cone   Friction     Pore 2 HydroPress         qt Fric_ratio  SigmaVert       Qnet         Bq
   No        m         s        MPa        MPa        MPa        MPa        MPa          %        kPa        MPa          -
    1    0.000   1723.41     0.0000                           0.0000     0.0000                0.0000     0.0000           
    2    0.020   1724.39     0.0034                0.0002     0.0002     0.0034                0.3200     0.0031    -0.0157
    3    0.040   1725.29     0.0040                0.0004     0.0004     0.0041                0.6400     0.0035    -0.0265
    4    0.060   1726.22     0.0031                0.0007     0.0006     0.0033                0.9600     0.0024    -0.0050
    5    0.080   1727.16     0.0040     0.0005     0.0010     0.0008     0.0044    14.3118     1.2800     0.0031     0.0434
    6    0.100   1728.10     0.0046     0.0006     0.0011     0.0010     0.0050    11.8737     1.6000     0.0034     0.0013
    7    0.120   1729.01     0.0019     0.0006     0.0014     0.0012     0.0024    95.3575     1.9200     0.0005     0.0391
    8    0.140   1730.00     0.0026     0.0005     0.0012     0.0014     0.0031    12.9317     2.2400     0.0008    -0.2206
    9    0.160   1730.99     0.0047     0.0003     0.0018     0.0016     0.0054     8.1175     2.5600     0.0028    -0.1301
   10    0.180   1732.01     0.0025     0.0006     0.0019     0.0018     0.0032    31.6249     2.8800     0.0004    -0.1093
   11    0.200   1732.95     0.0003     0.0005     0.0021     0.0020     0.0012    65.5456     3.2000    -0.0020    -0.0700
   12    0.220   1733.81     0.0045     0.0005     0.0024     0.0022     0.0055    71.7806     3.5200     0.0019     0.0408
   13    0.240   1734.77     0.0023     0.0003     0.0026     0.0024     0.0034    19.3603     3.8400    -0.0004    -1.4942
   14    0.260   1735.73     0.0057     0.0003     0.0028     0.0026     0.0068     7.4631     4.1600     0.0026     0.0447
   15    0.280   1736.74     0.0033     0.0003     0.0031     0.0028     0.0045     5.8205     4.4800     0.0001    -0.2663
   16    0.300   1737.60     0.0039     0.0002     0.0031     0.0030     0.0052     5.8601     4.8000     0.0004     0.4095
   17    0.320   1738.48     0.0046     0.0005     0.0032     0.0032     0.0060    11.8175     5.1200     0.0008     0.1415
   18    0.340   1739.41     0.0033     0.0006     0.0035     0.0034     0.0047    19.7445     5.4400    -0.0007     0.1681
   19    0.360   1740.50     0.0041     0.0005     0.0035     0.0036     0.0055    12.6900     5.7600    -0.0003     0.3001
   20    0.380   1741.48     0.0045     0.0004     0.0040     0.0038     0.0062     7.6914     6.0800     0.0001           
   21    0.400   1742.40     0.0051     0.0005     0.0041     0.0040     0.0068    10.5157     6.4000     0.0004    -0.3065
   22    0.420   1743.34     0.0025     0.0004     0.0045     0.0042     0.0044    17.1433     6.7200    -0.0023    -0.0908
   23    0.440   1744.26     0.0048     0.0004     0.0046     0.0044     0.0067    14.6702     7.0400    -0.0003     0.1866
   24    0.460   1745.25     0.0052     0.0002     0.0049     0.0046     0.0072    10.4634     7.3600    -0.0001     0.0600
   25    0.480   1746.17     0.0059     0.0004     0.0049     0.0048     0.0080     8.0585     7.6800     0.0003    -0.1790
   26    0.500   1747.03     0.0066     0.0005     0.0053     0.0050     0.0088     6.7279     8.0000     0.0008     0.3371
   27    0.520   1747.97     0.0068     0.0003     0.0051     0.0052     0.0090     4.7579     8.3200     0.0007    -0.2646
   28    0.540   1748.87     0.0039     0.0004     0.0052     0.0054     0.0061     8.9288     8.6400    -0.0025    -0.0312
   29    0.560   1749.89     0.0061     0.0007     0.0055     0.0056     0.0083    11.6084     8.9600    -0.0006     0.2735
   30    0.580   1750.94     0.0063     0.0005     0.0059     0.0058     0.0087     7.9414     9.2800    -0.0005    -0.1006
   31    0.600   1751.89     0.0045     0.0005     0.0065     0.0060     0.0072     5.7313     9.6000    -0.0024    -0.1997
   32    0.620   1752.78     0.0103     0.0005     0.0066     0.0062     0.0131     7.5236     9.9200     0.0032     0.0116
   33    0.640   1753.65     0.0101     0.0007     0.0067     0.0064     0.0129     8.8435    10.2400     0.0026     0.4218
   34    0.660   1754.57     0.0068     0.0009     0.0067     0.0066     0.0096    15.4652    10.5600    -0.0010     0.0062
   35    0.680   1755.52     0.0117     0.0006     0.0067     0.0068     0.0145     6.0289    10.8800     0.0037    -0.0041
   36    0.700   1756.53     0.0142     0.0006     0.0067     0.0070     0.0170     5.0229    11.2000     0.0058    -0.0368
   37    0.720   1757.49     0.0141     0.0005     0.0072     0.0072     0.0170     3.6462    11.5200     0.0055    -0.0515
   38    0.740   1758.47     0.0152     0.0008     0.0074     0.0074     0.0183     6.0426    11.8400     0.0065     0.0014
   39    0.760   1759.47     0.0134     0.0007     0.0077     0.0076     0.0166     5.1742    12.1600     0.0045     0.0287
   40    0.780   1760.29     0.0150     0.0007     0.0079     0.0078     0.0183     5.1381    12.4800     0.0058     0.0003
   41    0.800   1761.17     0.0154     0.0009     0.0074     0.0080     0.0186     6.4145    12.8000     0.0058    -0.0407
   42    0.820   1762.07     0.0201     0.0011     0.0076     0.0082     0.0233     5.7942    13.1200     0.0102    -0.0493
   43    0.840   1763.09     0.0196     0.0012     0.0076     0.0084     0.0228     6.2687    13.4400     0.0093    -0.0886
   44    0.860   1764.10     0.0220     0.0012     0.0066     0.0086     0.0251     5.8240    13.7600     0.0113    -0.1055
   45    0.880   1765.09     0.0254     0.0014     0.0042     0.0088     0.0272     5.7001    14.0800     0.0131    -0.3501
   46    0.900   1766.02     0.0240     0.0013     0.0073     0.0090     0.0265     5.5852    14.4000     0.0121    -0.2444
   47    0.920   1766.95     0.0250     0.0015     0.0096     0.0092     0.0288     5.8506    14.7200     0.0140    -0.0117
   48    0.940   1767.90     0.0234     0.0015     0.0112     0.0094     0.0280     6.0891    15.0400     0.0129     0.1141
   49    0.960   1768.78     0.0297     0.0017     0.0120     0.0096     0.0346     5.9006    15.3600     0.0193     0.1096
   50    0.980   1769.71     0.0299     0.0017     0.0108     0.0098     0.0347     5.9430    15.6800     0.0190     0.0852
   51    1.000   1770.58     0.0306     0.0019     0.0093     0.0100     0.0349     6.1176    16.0000     0.0189     0.0092
   52    1.020   1771.52     0.0310     0.0019     0.0090     0.0102     0.0350     6.0993    16.3200     0.0186    -0.0440
   53    1.040   1772.47     0.0291     0.0021     0.0071     0.0104     0.0324     6.7446    16.6400     0.0157    -0.1629
   54    1.060   1773.52     0.0254     0.0019     0.0078     0.0106     0.0284     7.4213    16.9600     0.0114    -0.3076
   55    1.080   1774.44     0.0250     0.0020     0.0081     0.0108     0.0279     7.9753    17.2800     0.0106    -0.3734
   56    1.100   1775.39     0.0231     0.0017     0.0110     0.0110     0.0274     6.8821    17.6000     0.0098    -0.0923
   57    1.120   1776.34     0.0240     0.0018     0.0131     0.0112     0.0292     7.2650    17.9200     0.0113     0.1011
   58    1.140   1777.20     0.0236     0.0017     0.0144     0.0114     0.0295     7.0802    18.2400     0.0113     0.2370
   59    1.160   1778.09     0.0256     0.0019     0.0157     0.0116     0.0319     7.5365    18.5600     0.0134     0.2650
   60    1.180   1779.02     0.0271     0.0018     0.0170     0.0118     0.0340     6.6940    18.8800     0.0151     0.3119
   61    1.200   1780.04     0.0248     0.0019     0.0179     0.0120     0.0322     7.5304    19.2000     0.0130     0.4395
   62    1.220   1785.20     0.0218     0.0022     0.0167     0.0122     0.0288     9.3382    19.5200     0.0092     0.4622
   63    1.240   1823.21     0.0223     0.0021     0.0172     0.0124     0.0295     9.7531    19.8400     0.0096     0.4770
   64    1.260   1857.95     0.0226     0.0022     0.0180     0.0126     0.0300     9.8076    20.1600     0.0098     0.5069
   65    1.280   1858.86     0.0210     0.0018     0.0186     0.0128     0.0287     8.3472    20.4800     0.0082     0.6606
   66    1.300   1859.83     0.0217     0.0020     0.0203     0.0130     0.0300     9.2583    20.8000     0.0092     0.7307
   67    1.320   1860.85     0.0308     0.0018     0.0223     0.0132     0.0399     7.3064    21.1200     0.0188     0.4539
   68    1.340   1861.77     0.0419     0.0026     0.0240     0.0134     0.0517     7.4818    21.4400     0.0303     0.3323
   69    1.360   1862.73     0.0601     0.0028     0.0213     0.0136     0.0701     5.2450    21.7600     0.0484     0.2126
   70    1.380   1863.66     0.0809     0.0032     0.0142     0.0138     0.0875     4.5487    22.0800     0.0655     0.0318
   71    1.400   1864.59     0.0934     0.0037     0.0104     0.0140     0.0984     4.2273    22.4000     0.0760    -0.0267
   72    1.420   1865.51     0.1024     0.0042     0.0014     0.0142     0.1043     4.2003    22.7200     0.0816    -0.1199
   73    1.440   1866.42     0.0914     0.0045     0.0008     0.0144     0.0916     4.5778    23.0400     0.0686    -0.2012
   74    1.460   1867.33     0.0746     0.0048     0.0020     0.0146     0.0756     5.7696    23.3600     0.0522    -0.2374
   75    1.480   1868.32     0.0652     0.0046     0.0006     0.0148     0.0659     6.4472    23.6800     0.0422    -0.3138
   76    1.500   1869.28     0.0572     0.0048    -0.0008     0.0150     0.0569     8.0588    24.0000     0.0329    -0.4783
   77    1.520   1870.21     0.0503     0.0043     0.0011     0.0152     0.0504     8.2371    24.3200     0.0261    -0.5808
   78    1.540   1871.13     0.0457     0.0035     0.0032     0.0154     0.0468     7.4810    24.6400     0.0222    -0.5727
   79    1.560   1872.06     0.0377     0.0025     0.0062     0.0156     0.0397     6.2518    24.9600     0.0148    -0.7509
   80    1.580   1873.02     0.0352     0.0021     0.0085     0.0158     0.0384     5.4698    25.2800     0.0132    -0.6174
   81    1.600   1873.95     0.0305     0.0007     0.0095     0.0160     0.0344     1.7473    25.6000     0.0088    -0.8487
   82    1.620   1874.82     0.0267    -0.0014     0.0111     0.0162     0.0311    -5.7465    25.9200     0.0052    -1.1601
   83    1.640   1875.76     0.0235     0.0019     0.0126     0.0164     0.0287    10.3140    26.2400     0.0024    -1.7253
   84    1.660   1876.74     0.0243     0.0078     0.0135     0.0166     0.0299    37.3030    26.5600     0.0033           
   85    1.680   1877.69     0.0260     0.0022     0.0147     0.0168     0.0320     8.5834    26.8800     0.0051    -0.5383
   86    1.700   1878.62     0.0716     0.0005     0.0213     0.0170     0.0790    -6.4465    27.2000     0.0518    -0.0439
   87    1.720   1879.57     0.5371     0.0101     0.0232     0.0172     0.5485     0.2135    27.5200     0.5209     0.0191
   88    1.740   1881.35     0.5423     0.0138     0.0205     0.0174     0.5511     2.3045    27.8400     0.5233     0.0099
   89    1.760   1887.75     0.1564     0.0143     0.0195     0.0176     0.1646     2.3784    28.1600     0.1364     0.0305
   90    1.780   1891.26     0.2296     0.0140     0.0241     0.0178     0.2435     9.1577    28.4800     0.2150     0.0723
   91    1.800   1895.00     0.7171     0.0108     0.0028     0.0180     0.7190     2.5311    28.8000     0.6902    -0.0142
   92    1.820   1902.77     0.3857     0.0108     0.0084     0.0182     0.3884     1.5519    29.1200     0.3593    -0.1031
   93    1.840   1909.88     0.0698     0.0125     0.0174     0.0184     0.0766    18.1084    29.4400     0.0472    -0.0466
   94    1.860   1911.67     0.0799     0.0137     0.0275     0.0186     0.0899    20.7487    29.7600     0.0601     0.0925
   95    1.880   1913.31     0.0800     0.0095     0.0311     0.0188     0.0924    15.0636    30.0800     0.0623     0.1755
   96    1.900   1914.31     0.0937     0.0049     0.0345     0.0190     0.1079     5.3583    30.4000     0.0775     0.1917
   97    1.920   1915.31     0.0939     0.0051     0.0351     0.0192     0.1086     5.6194    30.7200     0.0779     0.2034
   98    1.940   1916.23     0.0883     0.0051     0.0353     0.0194     0.1030     5.6256    31.0400     0.0719     0.2164
   99    1.960   1917.17     0.0862     0.0051     0.0381     0.0196     0.1019     5.7826    31.3600     0.0706     0.2520
  100    1.980   1918.14     0.0806     0.0055     0.0384     0.0198     0.0967     6.5374    31.6800     0.0650     0.2856
  101    2.000   1919.09     0.0807     0.0053     0.0369     0.0200     0.0964     6.7167    32.0000     0.0644     0.2719
  102    2.020   1920.00     0.0886     0.0054     0.0376     0.0202     0.1041     6.3557    32.3200     0.0718     0.2355
  103    2.040   1920.91     0.0912     0.0050     0.0389     0.0204     0.1073     5.6802    32.6400     0.0747     0.2421
  104    2.060   1921.83     0.0874     0.0046     0.0396     0.0206     0.1037     5.0944    32.9600     0.0707     0.2580
  105    2.080   1922.80     0.0764     0.0042     0.0402     0.0208     0.0932     5.4085    33.2800     0.0599     0.3211
  106    2.100   1923.80     0.0708     0.0036     0.0440     0.0210     0.0886     4.9224    33.6000     0.0550     0.3879
  107    2.120   1924.74     0.0709     0.0038     0.0482     0.0212     0.0907     5.2393    33.9200     0.0568     0.4562
  108    2.140   1925.64     0.0714     0.0035     0.0490     0.0214     0.0920     4.7976    34.2400     0.0577     0.4777
  109    2.160   1926.52     0.0717     0.0039     0.0492     0.0216     0.0921     5.5469    34.5600     0.0576     0.4692
  110    2.180   1927.56     0.0807     0.0039     0.0519     0.0218     0.1022     4.8691    34.8800     0.0673     0.4373
  111    2.200   1928.48     0.0876     0.0036     0.0540     0.0220     0.1101     4.2770    35.2000     0.0749     0.4198
  112    2.220   1929.35     0.0910     0.0037     0.0564     0.0222     0.1143     4.0941    35.5200     0.0787     0.4204
  113    2.240   1930.43     0.1044     0.0035     0.0574     0.0224     0.1288     3.6102    35.8400     0.0930     0.3848
  114    2.260   1931.45     0.1102     0.0034     0.0554     0.0226     0.1337     3.0078    36.1600     0.0975     0.3415
  115    2.280   1932.55     0.1110     0.0034     0.0569     0.0228     0.1347     3.0934    36.4800     0.0982     0.3425
  116    2.300   1933.65     0.1146     0.0045     0.0558     0.0230     0.1384     4.0126    36.8000     0.1016     0.3315
  117    2.320   1934.65     0.1135     0.0049     0.0574     0.0232     0.1370     4.3613    37.1200     0.0999     0.3273
  118    2.340   1935.69     0.1230     0.0051     0.0584     0.0234     0.1475     4.2837    37.4400     0.1100     0.3172
  119    2.360   1936.67     0.1453     0.0053     0.0579     0.0236     0.1697     3.7276    37.7600     0.1320     0.2633
  120    2.380   1937.62     0.1589     0.0054     0.0576     0.0238     0.1831     3.4058    38.0800     0.1450     0.2326
  121    2.400   1938.61     0.1640     0.0054     0.0537     0.0240     0.1869     3.3290    38.4000     0.1485     0.2055
  122    2.420   1939.67     0.1772     0.0059     0.0470     0.0242     0.1983     3.2796    38.7200     0.1595     0.1620
  123    2.440   1940.64     0.1711     0.0059     0.0416     0.0244     0.1889     3.4692    39.0400     0.1498     0.1190
  124    2.460   1941.65     0.1871     0.0062     0.0373     0.0246     0.2038     3.4293    39.3600     0.1644     0.0934
  125    2.480   1942.68     0.1887     0.0064     0.0382     0.0248     0.2038     3.3242    39.6800     0.1641     0.0687
  126    2.500   1943.62     0.1766     0.0066     0.0436     0.0250     0.1948     3.6807    40.0000     0.1548     0.1189
  127    2.520   1944.56     0.1664     0.0065     0.0458     0.0252     0.1852     3.8519    40.3200     0.1449     0.1348
  128    2.540   1945.54     0.1618     0.0066     0.0457     0.0254     0.1818     4.0356    40.6400     0.1411     0.1567
  129    2.560   1946.53     0.1592     0.0066     0.0417     0.0256     0.1785     4.1185    40.9600     0.1375     0.1478
  130    2.580   1947.49     0.1561     0.0065     0.0403     0.0258     0.1730     4.1470    41.2800     0.1317     0.1096
  131    2.600   1948.41     0.1575     0.0066     0.0426     0.0260     0.1726     4.1889    41.6000     0.1310     0.0767
  132    2.620   1949.35     0.1723     0.0061     0.0464     0.0262     0.1918     3.6254    41.9200     0.1499     0.1365
  133    2.640   1950.35     0.1821     0.0055     0.0466     0.0264     0.2021     3.1027    42.2400     0.1598     0.1319
  134    2.660   1951.33     0.1670     0.0054     0.0423     0.0266     0.1855     3.1016    42.5600     0.1430     0.1220
  135    2.680   1952.36     0.1483     0.0055     0.0457     0.0268     0.1666     3.5571    42.8800     0.1237     0.1357
  136    2.700   1953.29     0.1349     0.0050     0.0504     0.0270     0.1555     3.6879    43.2000     0.1123     0.1961
