

 Program UNIPLOT                         version 05.36.02
 _______________
 (c) Fugro Netherlands Marine, Nootdorp, The Netherlands


 ASCII representation of data plotted on a graph.

 This ASCII file presents data interpolated to values per fixed depth interval.
 The data are corrected for the depth-offset differences between the various 
 transducers in the penetrometer.

 The records at the start of penetration may include no values or anomalous
 values where a depth offset implies incomplete penetration of a particular
 sensor into the ground.

 The records at the end of penetration may include no values for data channels
 where the transducer did not reach this depth.

 The reference level for test values is (1) the ground surface for onshore tests and (2) the seafloor for nearshore and offshore tests.

 UNICAS data file          : CPT-1039.000                            
 Output using command file : PlotASCII.cmd

 ASCII file created at : date          :21-Apr-2022
                         time          :15:40:02
 Project number                        :20024805                                                                                            
 Date of testing                       :14-Apr-2022                                                                                         
 Location                              :Hong Kong Offshore Wind Farm Project                                                                
 Test name                             :CPT-1039
 Penetrometer                          :F7.5CKE2HAW2/B/3342
 Serial no                             :1701-3342

 Table description:
 Column ID                             :Parameter name
 ___________________________________________________________________________________
 Rec                                   :Record ID, Record ID [-]
 Depth                                 :Depth, Depth [m]
 Time                                  :Time, Time [s]
 Cone                                  :Cone Resistance, Cone Resistance [MPa]
 Friction                              :Sleeve Friction, Sleeve Friction [MPa]
 Pore 2                                :Porewater Pressure, Porewater Pressure at Shoulder [MPa]
 HydroPress                            :Hydrostatic Pressure, Hydrostatic Pressure [MPa]
 qt                                    :Total Cone Resistance, Total Cone Resistance [MPa]
 Fric_ratio                            :Friction Ratio, Friction Ratio [%]
 SigmaVert                             :Vertical stress, Vertical stress [kPa] as specified in ground model
 Qnet                                  :Net Cone Resistance, Net Cone Resistance [MPa], unit weight as specified in ground model
 Bq                                    :Porewater Pressure Ratio, Porewater Pressure Ratio [-], unit weight as specified in ground model


 Data table:
  Rec    Depth      Time       Cone   Friction     Pore 2 HydroPress         qt Fric_ratio  SigmaVert       Qnet         Bq
   No        m         s        MPa        MPa        MPa        MPa        MPa          %        kPa        MPa          -
    1    0.000   1346.16     0.0000                           0.0000     0.0000                0.0000     0.0000           
    2    0.020   1347.11     0.0015                0.0004     0.0002     0.0016                0.3200     0.0013     0.0521
    3    0.040   1348.04     0.0013                0.0008     0.0004     0.0016                0.6400     0.0010     0.3401
    4    0.060   1348.98     0.0023                0.0011     0.0006     0.0028                0.9600     0.0018     0.2996
    5    0.080   1349.91     0.0016     0.0003     0.0014     0.0008     0.0021    16.7364     1.2800     0.0008     0.5600
    6    0.100   1350.90     0.0023     0.0003     0.0016     0.0010     0.0030    15.9800     1.6000     0.0014     0.4576
    7    0.120   1351.83     0.0035     0.0002     0.0016     0.0012     0.0041     7.3968     1.9200     0.0022     0.2174
    8    0.140   1352.76     0.0025     0.0004     0.0018     0.0014     0.0033    15.4980     2.2400     0.0010     0.6064
    9    0.160   1353.70     0.0068     0.0005     0.0017     0.0016     0.0075    12.6267     2.5600     0.0049     0.0514
   10    0.180   1354.63     0.0062     0.0005     0.0019     0.0018     0.0071     6.5207     2.8800     0.0042     0.0737
   11    0.200   1355.59     0.0117     0.0006     0.0018     0.0020     0.0126     7.1069     3.2000     0.0094     0.0067
   12    0.220   1356.54     0.0151     0.0009     0.0013     0.0022     0.0156     6.9793     3.5200     0.0121    -0.0772
   13    0.240   1357.51     0.0136     0.0009     0.0007     0.0024     0.0140     7.8451     3.8400     0.0102    -0.1377
   14    0.260   1358.45     0.0140     0.0009    -0.0003     0.0026     0.0141     6.5556     4.1600     0.0099    -0.2515
   15    0.280   1359.36     0.0115     0.0012    -0.0007     0.0028     0.0112    10.5992     4.4800     0.0067    -0.5408
   16    0.300   1360.32     0.0162     0.0013     0.0000     0.0030     0.0163     8.3418     4.8000     0.0115    -0.2497
   17    0.320   1361.29     0.0162     0.0011     0.0008     0.0032     0.0165     6.7177     5.1200     0.0114    -0.2206
   18    0.340   1362.27     0.0163     0.0013     0.0015     0.0034     0.0169     8.7983     5.4400     0.0114    -0.1770
   19    0.360   1363.22     0.0165     0.0014     0.0028     0.0036     0.0173     9.5887     5.7600     0.0116    -0.1341
   20    0.380   1364.13     0.0148     0.0012     0.0028     0.0038     0.0162     6.4896     6.0800     0.0102    -0.0324
   21    0.400   1365.10     0.0191     0.0015     0.0028     0.0040     0.0202     7.7784     6.4000     0.0138    -0.0899
   22    0.420   1366.04     0.0199     0.0018     0.0030     0.0042     0.0212    11.1814     6.7200     0.0145    -0.0740
   23    0.440   1366.96     0.0184     0.0016     0.0014     0.0044     0.0192     9.6721     7.0400     0.0121    -0.2007
   24    0.460   1367.90     0.0163     0.0019     0.0014     0.0046     0.0169    11.2938     7.3600     0.0095    -0.3491
   25    0.480   1368.86     0.0185     0.0023     0.0018     0.0048     0.0192    12.8878     7.6800     0.0115    -0.2745
   26    0.500   1369.85     0.0141     0.0025     0.0020     0.0050     0.0148    18.3006     8.0000     0.0068    -0.5012
   27    0.520   1370.76     0.0164     0.0024     0.0030     0.0052     0.0176    15.0696     8.3200     0.0093    -0.2546
   28    0.540   1371.71     0.0174     0.0022     0.0041     0.0054     0.0189    13.1444     8.6400     0.0103    -0.1880
   29    0.560   1375.71     0.0147     0.0023     0.0040     0.0056     0.0164    12.8869     8.9600     0.0075     0.0053
   30    0.580   1381.88     0.0082     0.0024     0.0037     0.0058     0.0098    12.7933     9.2800     0.0005     0.1948
   31    0.600   1388.05     0.0017     0.0023     0.0040     0.0060     0.0032    47.3544     9.6000    -0.0064     0.3844
   32    0.620   1389.10     0.0022     0.0025     0.0049     0.0062     0.0042   178.8580     9.9200    -0.0057     0.2505
   33    0.640   1390.05     0.0028     0.0027     0.0051     0.0064     0.0049   115.4861    10.2400    -0.0053     0.2566
   34    0.660   1391.00     0.0034     0.0023     0.0056     0.0066     0.0056    53.7508    10.5600    -0.0049     0.2902
   35    0.680   1391.95     0.0015     0.0021     0.0062     0.0068     0.0041   331.1089    10.8800    -0.0068     0.1197
   36    0.700   1392.91     0.0043     0.0021     0.0068     0.0070     0.0071   271.1378    11.2000    -0.0041     0.1200
   37    0.720   1393.87     0.0012     0.0020     0.0084     0.0072     0.0045   199.0287    11.5200    -0.0071    -0.0821
   38    0.740   1394.80     0.0020     0.0017     0.0093     0.0074     0.0057   102.8862    11.8400    -0.0061    -0.2672
   39    0.760   1395.75     0.0030     0.0019     0.0101     0.0076     0.0071    75.5972    12.1600    -0.0050    -0.5058
   40    0.780   1396.97     0.0065     0.0019     0.0106     0.0078     0.0110    33.9535    12.4800    -0.0015    -2.0117
   41    0.800   1420.09     0.0086     0.0018     0.0097     0.0080     0.0128    88.9345    12.8000     0.0000    -1.1971
   42    0.820   1445.80     0.0109     0.0023     0.0088     0.0082     0.0147   109.2868    13.1200     0.0016    -0.0906
   43    0.840   1454.31     0.0138     0.0019     0.0103     0.0084     0.0178    14.8473    13.4400     0.0044     0.2473
   44    0.860   1455.32     0.0138     0.0016     0.0119     0.0086     0.0184    10.8506    13.7600     0.0047     0.5342
   45    0.880   1456.26     0.0115     0.0019     0.0128     0.0088     0.0168    14.8002    14.0800     0.0027     1.4056
   46    0.900   1457.22     0.0142     0.0016     0.0127     0.0090     0.0196    13.5292    14.4000     0.0052     0.7814
   47    0.920   1458.17     0.0168     0.0020     0.0133     0.0092     0.0224    11.8912    14.7200     0.0077     0.5513
   48    0.940   1459.11     0.0184     0.0020     0.0142     0.0094     0.0242    14.9026    15.0400     0.0092     0.5182
   49    0.960   1460.06     0.0184     0.0019     0.0150     0.0096     0.0247    10.9250    15.3600     0.0093     0.5667
   50    0.980   1460.98     0.0209     0.0017     0.0154     0.0098     0.0273     7.7985    15.6800     0.0116     0.4809
   51    1.000   1461.94     0.0205     0.0016     0.0161     0.0100     0.0271     7.9675    16.0000     0.0111     0.5200
   52    1.020   1462.88     0.0187     0.0019     0.0163     0.0102     0.0255     9.7014    16.3200     0.0091     0.6500
   53    1.040   1463.84     0.0232     0.0020     0.0164     0.0104     0.0302     9.0570    16.6400     0.0135     0.4837
   54    1.060   1464.77     0.0211     0.0017     0.0163     0.0106     0.0279     8.8196    16.9600     0.0110     0.5216
   55    1.080   1465.71     0.0204     0.0019     0.0162     0.0108     0.0272     9.3422    17.2800     0.0099     0.5463
   56    1.100   1466.65     0.0220     0.0020     0.0161     0.0110     0.0289     8.6879    17.6000     0.0113     0.4712
   57    1.120   1467.57     0.0200     0.0021     0.0166     0.0112     0.0269     9.2182    17.9200     0.0090     0.5834
   58    1.140   1468.54     0.0219     0.0017     0.0174     0.0114     0.0291     7.9619    18.2400     0.0108     0.5315
   59    1.160   1469.52     0.0238     0.0021     0.0187     0.0116     0.0314     9.5180    18.5600     0.0129     0.5062
   60    1.180   1470.41     0.0239     0.0022     0.0201     0.0118     0.0322     8.5832    18.8800     0.0133     0.6007
   61    1.200   1471.36     0.0241     0.0021     0.0203     0.0120     0.0326     8.9594    19.2000     0.0134     0.6273
   62    1.220   1472.34     0.0246     0.0022     0.0200     0.0122     0.0329     9.1222    19.5200     0.0134     0.5741
   63    1.240   1473.30     0.0273     0.0021     0.0205     0.0124     0.0358     8.1142    19.8400     0.0160     0.4897
   64    1.260   1474.20     0.0252     0.0021     0.0207     0.0126     0.0339     7.8379    20.1600     0.0137     0.5876
   65    1.280   1475.13     0.0227     0.0021     0.0209     0.0128     0.0315     8.9579    20.4800     0.0110     0.7470
   66    1.300   1476.10     0.0243     0.0019     0.0217     0.0130     0.0333     8.2555    20.8000     0.0125     0.6740
   67    1.320   1477.07     0.0229     0.0015     0.0225     0.0132     0.0322     6.7234    21.1200     0.0110     0.8111
   68    1.340   1478.00     0.0205     0.0015     0.0236     0.0134     0.0303     7.4228    21.4400     0.0088     1.1183
   69    1.360   1478.94     0.0211     0.0019     0.0245     0.0136     0.0313     8.7468    21.7600     0.0095     1.1388
   70    1.380   1479.91     0.0231     0.0018     0.0248     0.0138     0.0335     8.0921    22.0800     0.0114     0.9528
   71    1.400   1480.85     0.0271     0.0019     0.0246     0.0140     0.0375     7.3574    22.4000     0.0151     0.7261
   72    1.420   1481.78     0.0254     0.0018     0.0238     0.0142     0.0354     7.1704    22.7200     0.0127     0.7786
   73    1.440   1482.73     0.0258     0.0021     0.0241     0.0144     0.0359     7.7888    23.0400     0.0128     0.7448
   74    1.460   1483.64     0.0289     0.0022     0.0240     0.0146     0.0388     7.5613    23.3600     0.0155     0.5915
   75    1.480   1484.61     0.0267     0.0020     0.0249     0.0148     0.0370     8.3551    23.6800     0.0133     0.7216
   76    1.500   1485.56     0.0289     0.0023     0.0261     0.0150     0.0397     7.7710    24.0000     0.0157     0.6923
   77    1.520   1486.50     0.0290     0.0020     0.0270     0.0152     0.0402     7.0305    24.3200     0.0159     0.7277
   78    1.540   1487.45     0.0266     0.0019     0.0268     0.0154     0.0379     6.7814    24.6400     0.0133     0.8749
   79    1.560   1488.38     0.0291     0.0020     0.0271     0.0156     0.0404     7.6639    24.9600     0.0154     0.7655
   80    1.580   1489.33     0.0302     0.0021     0.0268     0.0158     0.0415     6.9353    25.2800     0.0162     0.6963
   81    1.600   1490.29     0.0314     0.0022     0.0246     0.0160     0.0423     6.9192    25.6000     0.0167     0.5933
   82    1.620   1491.24     0.0325     0.0023     0.0244     0.0162     0.0430     7.3714    25.9200     0.0170     0.5065
   83    1.640   1492.21     0.0302     0.0025     0.0243     0.0164     0.0403     7.8825    26.2400     0.0141     0.5556
   84    1.660   1493.12     0.0361     0.0023     0.0272     0.0166     0.0471     6.7037    26.5600     0.0206     0.4769
   85    1.680   1494.08     0.0384     0.0021     0.0292     0.0168     0.0504     5.7315    26.8800     0.0236     0.5025
   86    1.700   1495.00     0.0367     0.0024     0.0313     0.0170     0.0496     6.6536    27.2000     0.0224     0.6093
   87    1.720   1495.94     0.0361     0.0025     0.0324     0.0172     0.0495     6.8017    27.5200     0.0220     0.6700
   88    1.740   1496.88     0.0350     0.0024     0.0342     0.0174     0.0491     6.6918    27.8400     0.0213     0.7555
   89    1.760   1497.82     0.0369     0.0022     0.0343     0.0176     0.0513     6.0927    28.1600     0.0231     0.7187
   90    1.780   1498.76     0.0399     0.0022     0.0361     0.0178     0.0546     5.5242    28.4800     0.0261     0.6562
   91    1.800   1499.72     0.0368     0.0021     0.0373     0.0180     0.0523     5.5268    28.8000     0.0235     0.8113
   92    1.820   1500.66     0.0394     0.0018     0.0392     0.0182     0.0555     4.5404    29.1200     0.0264     0.7619
   93    1.840   1501.63     0.0417     0.0023     0.0408     0.0184     0.0588     6.0055    29.4400     0.0294     0.7630
   94    1.860   1502.61     0.0441     0.0022     0.0401     0.0186     0.0607     4.8378    29.7600     0.0310     0.6815
   95    1.880   1503.54     0.0470     0.0021     0.0380     0.0188     0.0630     4.8062    30.0800     0.0329     0.5864
   96    1.900   1504.47     0.0458     0.0025     0.0362     0.0190     0.0615     5.3147    30.4000     0.0311     0.5902
   97    1.920   1505.43     0.0495     0.0022     0.0360     0.0192     0.0644     4.7625    30.7200     0.0337     0.4866
   98    1.940   1506.34     0.0508     0.0026     0.0398     0.0194     0.0672     5.0215    31.0400     0.0361     0.5420
   99    1.960   1507.27     0.0548     0.0023     0.0407     0.0196     0.0720     4.4829    31.3600     0.0407     0.5272
  100    1.980   1508.22     0.0539     0.0024     0.0401     0.0198     0.0706     4.2932    31.6800     0.0389     0.5091
  101    2.000   1509.13     0.0562     0.0022     0.0422     0.0200     0.0738     3.8070    32.0000     0.0418     0.5239
  102    2.020   1510.08     0.0615     0.0024     0.0417     0.0202     0.0794     4.2792    32.3200     0.0470     0.4749
  103    2.040   1511.04     0.0578     0.0022     0.0426     0.0204     0.0755     3.7554    32.6400     0.0428     0.5074
  104    2.060   1511.96     0.0632     0.0024     0.0427     0.0206     0.0812     3.9891    32.9600     0.0482     0.4620
  105    2.080   1512.93     0.0676     0.0028     0.0463     0.0208     0.0863     4.2396    33.2800     0.0530     0.4484
  106    2.100   1513.85     0.0736     0.0024     0.0481     0.0210     0.0936     3.4115    33.6000     0.0600     0.4433
  107    2.120   1514.79     0.0737     0.0029     0.0428     0.0212     0.0923     3.9302    33.9200     0.0584     0.3966
  108    2.140   1515.74     0.0707     0.0032     0.0337     0.0214     0.0860     4.3160    34.2400     0.0517     0.2878
  109    2.160   1516.71     0.0691     0.0033     0.0327     0.0216     0.0820     4.6163    34.5600     0.0474     0.1912
  110    2.180   1517.60     0.0655     0.0032     0.0410     0.0218     0.0818     4.9725    34.8800     0.0469     0.3598
  111    2.200   1518.58     0.0664     0.0030     0.0468     0.0220     0.0852     4.5537    35.2000     0.0500     0.4569
  112    2.220   1519.54     0.0679     0.0028     0.0500     0.0222     0.0885     4.0618    35.5200     0.0530     0.5077
  113    2.240   1520.47     0.0685     0.0026     0.0505     0.0224     0.0898     3.7349    35.8400     0.0540     0.5238
  114    2.260   1521.42     0.0667     0.0026     0.0516     0.0226     0.0881     3.7774    36.1600     0.0519     0.5448
  115    2.280   1522.40     0.0663     0.0029     0.0548     0.0228     0.0887     4.3697    36.4800     0.0522     0.5859
  116    2.300   1523.33     0.0671     0.0025     0.0583     0.0230     0.0913     3.6584    36.8000     0.0545     0.6342
  117    2.320   1524.31     0.0696     0.0025     0.0582     0.0232     0.0937     3.8033    37.1200     0.0566     0.6059
  118    2.340   1525.25     0.0762     0.0027     0.0587     0.0234     0.1008     3.6072    37.4400     0.0633     0.5569
  119    2.360   1526.19     0.0779     0.0029     0.0572     0.0236     0.1024     3.7168    37.7600     0.0646     0.5360
  120    2.380   1527.14     0.0793     0.0033     0.0530     0.0238     0.1021     4.1917    38.0800     0.0640     0.4778
  121    2.400   1528.11     0.0831     0.0032     0.0516     0.0240     0.1045     4.1217    38.4000     0.0661     0.4093
  122    2.420   1529.05     0.0811     0.0031     0.0517     0.0242     0.1027     3.8146    38.7200     0.0640     0.4271
  123    2.440   1530.01     0.0848     0.0034     0.0524     0.0244     0.1066     4.1330    39.0400     0.0676     0.4077
  124    2.460   1530.94     0.0904     0.0037     0.0552     0.0246     0.1132     4.1280    39.3600     0.0739     0.4026
  125    2.480   1531.87     0.0939     0.0037     0.0587     0.0248     0.1178     3.9143    39.6800     0.0782     0.4120
  126    2.500   1532.82     0.0950     0.0032     0.0539     0.0250     0.1191     3.3706    40.0000     0.0791     0.4087
  127    2.520   1533.80     0.0948     0.0027     0.0495     0.0252     0.1159     2.8855    40.3200     0.0756     0.3315
  128    2.540   1534.70     0.0895     0.0029     0.0549     0.0254     0.1118     3.1726    40.6400     0.0712     0.3905
  129    2.560   1535.67     0.0880     0.0029     0.0585     0.0256     0.1124     3.2885    40.9600     0.0714     0.4550
  130    2.580   1536.62     0.0860     0.0030     0.0610     0.0258     0.1116     3.4560    41.2800     0.0703     0.5007
  131    2.600   1537.61     0.0794     0.0027     0.0600     0.0260     0.1047     3.3327    41.6000     0.0631     0.5441
  132    2.620   1538.51     0.0743     0.0027     0.0545     0.0262     0.0986     3.4919    41.9200     0.0567     0.5573
  133    2.640   1539.45     0.0739     0.0027     0.0473     0.0264     0.0944     3.5958    42.2400     0.0522     0.4270
  134    2.660   1540.38     0.0776     0.0030     0.0493     0.0266     0.0976     4.1140    42.5600     0.0550     0.3841
