

 Program UNIPLOT                         version 05.36.02
 _______________
 (c) Fugro Netherlands Marine, Nootdorp, The Netherlands


 ASCII representation of data plotted on a graph.

 This ASCII file presents data interpolated to values per fixed depth interval.
 The data are corrected for the depth-offset differences between the various 
 transducers in the penetrometer.

 The records at the start of penetration may include no values or anomalous
 values where a depth offset implies incomplete penetration of a particular
 sensor into the ground.

 The records at the end of penetration may include no values for data channels
 where the transducer did not reach this depth.

 The reference level for test values is (1) the ground surface for onshore tests and (2) the seafloor for nearshore and offshore tests.

 UNICAS data file          : CPT-1014.000                            
 Output using command file : PlotASCII.cmd

 ASCII file created at : date          :21-May-2022
                         time          :11:56:42
 Project number                        :20024805                                                                                            
 Date of testing                       :20-May-2022                                                                                         
 Location                              :Hong Kong Offshore Wind Farm Project                                                                
 Test name                             :CPT-1014
 Penetrometer                          :F7.5CKE2HAW2/B/3285
 Serial no                             :1701-3285

 Table description:
 Column ID                             :Parameter name
 ___________________________________________________________________________________
 Rec                                   :Record ID, Record ID [-]
 Depth                                 :Depth, Depth [m]
 Time                                  :Time, Time [s]
 Cone                                  :Cone Resistance, Cone Resistance [MPa]
 Friction                              :Sleeve Friction, Sleeve Friction [MPa]
 Pore 2                                :Porewater Pressure, Porewater Pressure at Shoulder [MPa]
 HydroPress                            :Hydrostatic Pressure, Hydrostatic Pressure [MPa]
 qt                                    :Total Cone Resistance, Total Cone Resistance [MPa]
 Fric_ratio                            :Friction Ratio, Friction Ratio [%]
 SigmaVert                             :Vertical stress, Vertical stress [kPa] as specified in ground model
 Qnet                                  :Net Cone Resistance, Net Cone Resistance [MPa], unit weight as specified in ground model
 Bq                                    :Porewater Pressure Ratio, Porewater Pressure Ratio [-], unit weight as specified in ground model


 Data table:
  Rec    Depth      Time       Cone   Friction     Pore 2 HydroPress         qt Fric_ratio  SigmaVert       Qnet         Bq
   No        m         s        MPa        MPa        MPa        MPa        MPa          %        kPa        MPa          -
    1    0.000   1782.56     0.0000                           0.0000     0.0000                0.0000     0.0000           
    2    0.020   1783.55     0.0018                0.0001     0.0002     0.0018                0.3200     0.0015    -0.1013
    3    0.040   1784.52     0.0026                0.0006     0.0004     0.0028                0.6400     0.0021     0.0280
    4    0.060   1785.55     0.0019     0.0003     0.0013     0.0006     0.0024    14.6253     0.9600     0.0014     0.3284
    5    0.080   1786.54     0.0026     0.0002     0.0018     0.0008     0.0032     8.9633     1.2800     0.0019     0.3472
    6    0.100   1787.57     0.0011     0.0002     0.0021     0.0010     0.0019    14.3518     1.6000     0.0003     3.3794
    7    0.120   1788.55     0.0077     0.0003     0.0019     0.0012     0.0085     5.1785     1.9200     0.0066     0.1250
    8    0.140   1789.58     0.0080     0.0007     0.0013     0.0014     0.0086     9.0784     2.2400     0.0063    -0.0020
    9    0.160   1790.55     0.0079     0.0008     0.0007     0.0016     0.0083    10.1193     2.5600     0.0057    -0.1277
   10    0.180   1791.56     0.0083     0.0009     0.0002     0.0018     0.0084    10.6387     2.8800     0.0056    -0.2554
   11    0.200   1792.57     0.0094     0.0010    -0.0005     0.0020     0.0092    10.0954     3.2000     0.0060    -0.4083
   12    0.220   1793.57     0.0088     0.0011    -0.0003     0.0022     0.0086    11.7098     3.5200     0.0050    -0.5385
   13    0.240   1794.61     0.0120     0.0011     0.0011     0.0024     0.0123     9.0213     3.8400     0.0085    -0.2128
   14    0.260   1795.58     0.0134     0.0011     0.0022     0.0026     0.0144     9.1852     4.1600     0.0102    -0.0308
   15    0.280   1796.58     0.0103     0.0011     0.0015     0.0028     0.0109     8.4531     4.4800     0.0064    -0.2125
   16    0.300   1797.56     0.0100     0.0011     0.0011     0.0030     0.0107     8.4014     4.8000     0.0059    -0.2299
   17    0.320   1798.61     0.0136     0.0011     0.0016     0.0032     0.0142     8.3496     5.1200     0.0091    -0.1770
   18    0.340   1799.58     0.0165     0.0013     0.0015     0.0034     0.0171     7.8309     5.4400     0.0116    -0.1751
   19    0.360   1800.56     0.0153     0.0015     0.0007     0.0036     0.0158    11.4942     5.7600     0.0101    -0.2298
   20    0.380   1814.00     0.0160     0.0013     0.0009     0.0038     0.0163     7.6410     6.0800     0.0102    -0.4154
   21    0.400   1838.88     0.0128     0.0019     0.0014     0.0040     0.0133    10.5433     6.4000     0.0069    -0.7034
   22    0.420   1863.76     0.0097     0.0016     0.0018     0.0042     0.0104     8.8287     6.7200     0.0037    -0.9915
   23    0.440   1876.15     0.0082     0.0016     0.0023     0.0044     0.0089    18.7134     7.0400     0.0019    -1.5027
   24    0.460   1877.17     0.0089     0.0015     0.0043     0.0046     0.0105    17.0946     7.3600     0.0032    -0.2118
   25    0.480   1878.17     0.0127     0.0014     0.0047     0.0048     0.0146    11.3780     7.6800     0.0069    -0.0601
   26    0.500   1879.17     0.0096     0.0017     0.0046     0.0050     0.0114    17.1053     8.0000     0.0034    -0.2430
   27    0.520   1880.18     0.0107     0.0014     0.0042     0.0052     0.0124    13.4262     8.3200     0.0041    -0.2982
   28    0.540   1881.20     0.0138     0.0015     0.0050     0.0054     0.0158    10.7802     8.6400     0.0071    -0.0854
   29    0.560   1882.19     0.0176     0.0015     0.0049     0.0056     0.0196     8.5957     8.9600     0.0106    -0.0938
   30    0.580   1883.18     0.0178     0.0016     0.0040     0.0058     0.0200     8.9668     9.2800     0.0107    -0.0691
   31    0.600   1884.18     0.0151     0.0018     0.0044     0.0060     0.0171    11.6535     9.6000     0.0075    -0.1786
   32    0.620   1885.18     0.0184     0.0022     0.0043     0.0062     0.0204    11.8272     9.9200     0.0105    -0.1293
   33    0.640   1886.23     0.0158     0.0018     0.0060     0.0064     0.0184    11.6834    10.2400     0.0081    -0.0400
   34    0.660   1887.20     0.0153     0.0020     0.0064     0.0066     0.0180    13.3858    10.5600     0.0074    -0.0305
   35    0.680   1888.18     0.0158     0.0018     0.0076     0.0068     0.0189    11.1922    10.8800     0.0080     0.0834
   36    0.700   1889.19     0.0135     0.0020     0.0069     0.0070     0.0166    14.3798    11.2000     0.0054     0.0507
   37    0.720   1890.20     0.0135     0.0019     0.0082     0.0072     0.0165    12.6444    11.5200     0.0050     0.1507
   38    0.740   1891.20     0.0137     0.0020     0.0097     0.0074     0.0173    14.7420    11.8400     0.0055     0.2100
   39    0.760   1892.23     0.0157     0.0016     0.0107     0.0076     0.0198     9.8033    12.1600     0.0076     0.3212
   40    0.780   1893.19     0.0145     0.0016     0.0120     0.0078     0.0194    11.4024    12.4800     0.0069     0.5499
   41    0.800   1894.20     0.0146     0.0018     0.0133     0.0080     0.0201    13.2559    12.8000     0.0073     0.7155
   42    0.820   1895.19     0.0162     0.0018     0.0138     0.0082     0.0220    11.2494    13.1200     0.0089     0.6196
   43    0.840   1896.21     0.0190     0.0019     0.0141     0.0084     0.0249     9.6836    13.4400     0.0114     0.5238
   44    0.860   1897.22     0.0174     0.0020     0.0134     0.0086     0.0231    11.4482    13.7600     0.0093     0.5360
   45    0.880   1898.15     0.0174     0.0019     0.0125     0.0088     0.0230    10.9131    14.0800     0.0089     0.5000
   46    0.900   1899.19     0.0157     0.0021     0.0124     0.0090     0.0209    13.7378    14.4000     0.0065     0.5164
   47    0.920   1900.15     0.0158     0.0019     0.0136     0.0092     0.0213    11.3128    14.7200     0.0066     0.5849
   48    0.940   1901.18     0.0166     0.0020     0.0158     0.0094     0.0230    11.9702    15.0400     0.0080     0.7360
   49    0.960   1902.20     0.0175     0.0020     0.0170     0.0096     0.0246    12.1345    15.3600     0.0092     0.7998
   50    0.980   1903.17     0.0263     0.0018     0.0173     0.0098     0.0335     6.9536    15.6800     0.0178     0.4117
   51    1.000   1904.18     0.0309     0.0022     0.0163     0.0100     0.0382     7.4066    16.0000     0.0222     0.3360
   52    1.020   1905.18     0.0377     0.0024     0.0101     0.0102     0.0432     6.6678    16.3200     0.0269     0.1116
   53    1.040   1906.18     0.0425     0.0021     0.0093     0.0104     0.0462     4.9363    16.6400     0.0296    -0.0490
   54    1.060   1907.21     0.0410     0.0027     0.0106     0.0106     0.0453     6.5566    16.9600     0.0284    -0.0076
   55    1.080   1908.20     0.0394     0.0027     0.0076     0.0108     0.0431     6.9733    17.2800     0.0258    -0.0751
   56    1.100   1909.18     0.0363     0.0027     0.0101     0.0110     0.0401     7.3329    17.6000     0.0225    -0.0902
   57    1.120   1910.20     0.0299     0.0029     0.0119     0.0112     0.0348     8.5539    17.9200     0.0169     0.0193
   58    1.140   1911.21     0.0268     0.0028     0.0133     0.0114     0.0322    10.6917    18.2400     0.0139     0.0913
   59    1.160   1912.25     0.0233     0.0026     0.0144     0.0116     0.0289    10.7649    18.5600     0.0104     0.1826
   60    1.180   1913.21     0.0232     0.0024     0.0161     0.0118     0.0298    10.6537    18.8800     0.0110     0.3661
   61    1.200   1914.23     0.0295     0.0025     0.0186     0.0120     0.0371     8.1763    19.2000     0.0179     0.3357
   62    1.220   1915.25     0.0295     0.0026     0.0206     0.0122     0.0377     8.6202    19.5200     0.0182     0.4134
   63    1.240   1916.25     0.0288     0.0026     0.0198     0.0124     0.0375     9.2844    19.8400     0.0176     0.4737
   64    1.260   1917.23     0.0314     0.0024     0.0178     0.0126     0.0392     7.7496    20.1600     0.0191     0.3162
   65    1.280   1918.24     0.0337     0.0026     0.0178     0.0128     0.0409     7.8265    20.4800     0.0204     0.2180
   66    1.300   1919.25     0.0325     0.0025     0.0158     0.0130     0.0397     7.7445    20.8000     0.0189     0.2239
   67    1.320   1920.23     0.0316     0.0026     0.0162     0.0132     0.0385     7.9224    21.1200     0.0174     0.1817
   68    1.340   1921.23     0.0297     0.0027     0.0195     0.0134     0.0372     8.9309    21.4400     0.0157     0.2861
   69    1.360   1922.23     0.0269     0.0027     0.0227     0.0136     0.0360     9.7066    21.7600     0.0143     0.5790
   70    1.380   1923.22     0.0270     0.0027     0.0247     0.0138     0.0371    10.1780    22.0800     0.0150     0.6829
   71    1.400   1924.20     0.0294     0.0021     0.0258     0.0140     0.0401     7.3059    22.4000     0.0177     0.6489
   72    1.420   1925.22     0.0328     0.0026     0.0261     0.0142     0.0437     7.8366    22.7200     0.0210     0.5657
   73    1.440   1926.23     0.0327     0.0025     0.0259     0.0144     0.0437     7.8150    23.0400     0.0207     0.5704
   74    1.460   1927.22     0.0357     0.0025     0.0249     0.0146     0.0466     6.9243    23.3600     0.0232     0.4894
   75    1.480   1928.23     0.0340     0.0027     0.0240     0.0148     0.0441     7.8499    23.6800     0.0205     0.4579
   76    1.500   1929.25     0.0361     0.0030     0.0241     0.0150     0.0461     8.3824    24.0000     0.0221     0.3976
   77    1.520   1930.22     0.0379     0.0028     0.0248     0.0152     0.0484     7.3407    24.3200     0.0241     0.4087
   78    1.540   1931.22     0.0347     0.0031     0.0258     0.0154     0.0455     8.9731    24.6400     0.0209     0.5006
   79    1.560   1932.21     0.0346     0.0030     0.0254     0.0156     0.0454     9.0258    24.9600     0.0204     0.5034
   80    1.580   1933.24     0.0355     0.0031     0.0298     0.0158     0.0476     8.7795    25.2800     0.0223     0.5812
   81    1.600   1934.27     0.0374     0.0029     0.0310     0.0160     0.0502     7.6239    25.6000     0.0246     0.5913
   82    1.620   1935.27     0.0386     0.0029     0.0303     0.0162     0.0515     7.4908    25.9200     0.0255     0.5625
   83    1.640   1936.25     0.0424     0.0028     0.0313     0.0164     0.0553     6.6580    26.2400     0.0291     0.4973
   84    1.660   1937.25     0.0466     0.0027     0.0285     0.0166     0.0589     5.8205    26.5600     0.0324     0.3956
   85    1.680   1938.25     0.0500     0.0030     0.0311     0.0168     0.0627     6.0219    26.8800     0.0358     0.3729
   86    1.700   1939.24     0.0550     0.0030     0.0346     0.0170     0.0689     5.4650    27.2000     0.0417     0.3864
   87    1.720   1940.25     0.0544     0.0032     0.0360     0.0172     0.0697     5.7593    27.5200     0.0422     0.4532
   88    1.740   1941.24     0.0566     0.0029     0.0334     0.0174     0.0713     5.2331    27.8400     0.0434     0.4061
   89    1.760   1942.25     0.0624     0.0037     0.0362     0.0176     0.0770     6.1028    28.1600     0.0489     0.3522
   90    1.780   1943.24     0.0663     0.0037     0.0391     0.0178     0.0825     5.7854    28.4800     0.0540     0.3825
   91    1.800   1944.21     0.0706     0.0035     0.0342     0.0180     0.0860     5.0461    28.8000     0.0572     0.3298
   92    1.820   1945.24     0.0672     0.0035     0.0329     0.0182     0.0816     5.1221    29.1200     0.0524     0.3045
   93    1.840   1946.25     0.0659     0.0036     0.0349     0.0184     0.0794     5.4156    29.4400     0.0500     0.2763
   94    1.860   1947.24     0.0624     0.0033     0.0386     0.0186     0.0777     5.1464    29.7600     0.0479     0.3729
   95    1.880   1948.21     0.0585     0.0033     0.0414     0.0188     0.0758     5.5640    30.0800     0.0457     0.4905
   96    1.900   1949.20     0.0569     0.0033     0.0450     0.0190     0.0749     5.8672    30.4000     0.0445     0.5363
   97    1.920   1950.23     0.0537     0.0030     0.0477     0.0192     0.0733     5.4676    30.7200     0.0426     0.6478
   98    1.940   1951.21     0.0495     0.0032     0.0482     0.0194     0.0693     6.3952    31.0400     0.0383     0.7266
   99    1.960   1952.22     0.0483     0.0032     0.0417     0.0196     0.0666     6.6229    31.3600     0.0353     0.6803
  100    1.980   1953.20     0.0523     0.0032     0.0461     0.0198     0.0707     6.0763    31.6800     0.0391     0.6150
  101    2.000   1954.21     0.0532     0.0031     0.0499     0.0200     0.0744     5.9240    32.0000     0.0424     0.7189
  102    2.020   1955.20     0.0562     0.0033     0.0542     0.0202     0.0783     5.8025    32.3200     0.0460     0.7064
  103    2.040   1956.18     0.0561     0.0031     0.0575     0.0204     0.0794     5.5478    32.6400     0.0468     0.7501
  104    2.060   1957.20     0.0567     0.0028     0.0578     0.0206     0.0808     5.0406    32.9600     0.0478     0.7692
  105    2.080   1958.22     0.0623     0.0030     0.0609     0.0208     0.0874     4.8637    33.2800     0.0541     0.7214
  106    2.100   1959.21     0.0631     0.0034     0.0620     0.0210     0.0888     5.4294    33.6000     0.0552     0.7307
  107    2.120   1960.23     0.0716     0.0036     0.0581     0.0212     0.0966     5.0939    33.9200     0.0627     0.6101
  108    2.140   1961.21     0.0737     0.0038     0.0602     0.0214     0.0985     5.1397    34.2400     0.0642     0.5836
  109    2.160   1962.22     0.0790     0.0037     0.0540     0.0216     0.1027     4.6583    34.5600     0.0681     0.5098
  110    2.180   1963.25     0.0799     0.0036     0.0558     0.0218     0.1028     4.5233    34.8800     0.0679     0.4829
  111    2.200   1964.22     0.0762     0.0035     0.0574     0.0220     0.1002     4.6348    35.2000     0.0650     0.5395
  112    2.220   1965.22     0.0762     0.0036     0.0645     0.0222     0.1028     4.7447    35.5200     0.0673     0.6112
  113    2.240   1966.21     0.0793     0.0036     0.0690     0.0224     0.1075     4.5618    35.8400     0.0716     0.6239
  114    2.260   1967.23     0.0859     0.0039     0.0703     0.0226     0.1154     4.6564    36.1600     0.0793     0.6024
  115    2.280   1968.21     0.0977     0.0036     0.0707     0.0228     0.1277     3.8616    36.4800     0.0912     0.5344
  116    2.300   1969.22     0.1098     0.0032     0.0647     0.0230     0.1376     3.0667    36.8000     0.1008     0.4290
  117    2.320   1970.20     0.1151     0.0035     0.0603     0.0232     0.1410     3.0688    37.1200     0.1039     0.3705
  118    2.340   1971.21     0.1175     0.0038     0.0605     0.0234     0.1429     3.2441    37.4400     0.1054     0.3515
  119    2.360   1972.20     0.1208     0.0039     0.0562     0.0236     0.1448     3.2605    37.7600     0.1071     0.3142
  120    2.380   1984.60     0.1203     0.0038     0.0522     0.0238     0.1428     3.1725    38.0800     0.1047     0.2848
  121    2.400   2003.82     0.1230     0.0035     0.0482     0.0240     0.1438     2.9765    38.4000     0.1054     0.2431
  122    2.420   2019.80     0.1229     0.0032     0.0500     0.0242     0.1429     2.5484    38.7200     0.1042     0.2243
  123    2.440   2020.79     0.1177     0.0029     0.0508     0.0244     0.1401     2.4867    39.0400     0.1011     0.2860
  124    2.460   2021.79     0.1099     0.0034     0.0534     0.0246     0.1322     3.0766    39.3600     0.0929     0.3064
  125    2.480   2022.79     0.1046     0.0028     0.0475     0.0248     0.1255     2.6632    39.6800     0.0858     0.2882
  126    2.500   2023.79     0.0953     0.0023     0.0511     0.0250     0.1169     2.3463    40.0000     0.0769     0.3415
  127    2.520   2024.77     0.0892     0.0028     0.0479     0.0252     0.1099     3.1923    40.3200     0.0696     0.3455
  128    2.540   2025.80     0.0939     0.0026     0.0507     0.0254     0.1144     2.7971    40.6400     0.0738     0.3174
  129    2.560   2026.80     0.0980     0.0028     0.0576     0.0256     0.1215     2.8368    40.9600     0.0806     0.3770
  130    2.580   2027.79     0.1085     0.0031     0.0587     0.0258     0.1332     2.8515    41.2800     0.0919     0.3585
  131    2.600   2028.80     0.1218     0.0031     0.0476     0.0260     0.1422     2.5148    41.6000     0.1006     0.2237
  132    2.620   2029.80     0.1224     0.0031     0.0472     0.0262     0.1426     2.4781    41.9200     0.1007     0.2171
  133    2.640   2030.78     0.1186     0.0032     0.0469     0.0264     0.1383     2.6761    42.2400     0.0961     0.2145
  134    2.660   2031.78     0.1130     0.0036     0.0481     0.0266     0.1334     3.1462    42.5600     0.0908     0.2409
