

 Program UNIPLOT                         version 05.36.02
 _______________
 (c) Fugro Netherlands Marine, Nootdorp, The Netherlands


 ASCII representation of data plotted on a graph.

 This ASCII file presents data interpolated to values per fixed depth interval.
 The data are corrected for the depth-offset differences between the various 
 transducers in the penetrometer.

 The records at the start of penetration may include no values or anomalous
 values where a depth offset implies incomplete penetration of a particular
 sensor into the ground.

 The records at the end of penetration may include no values for data channels
 where the transducer did not reach this depth.

 The reference level for test values is (1) the ground surface for onshore tests and (2) the seafloor for nearshore and offshore tests.

 UNICAS data file          : CPT-1027.000                            
 Output using command file : PlotASCII.cmd

 ASCII file created at : date          :26-Apr-2022
                         time          :10:11:38
 Project number                        :20024805                                                                                            
 Date of testing                       :22-Apr-2022                                                                                         
 Location                              :Hong Kong Offshore Wind Farm Project                                                                
 Test name                             :CPT-1027
 Penetrometer                          :F7.5CKE2HAW2/B/3342
 Serial no                             :1701-3342

 Table description:
 Column ID                             :Parameter name
 ___________________________________________________________________________________
 Rec                                   :Record ID, Record ID [-]
 Depth                                 :Depth, Depth [m]
 Time                                  :Time, Time [s]
 Cone                                  :Cone Resistance, Cone Resistance [MPa]
 Friction                              :Sleeve Friction, Sleeve Friction [MPa]
 Pore 2                                :Porewater Pressure, Porewater Pressure at Shoulder [MPa]
 HydroPress                            :Hydrostatic Pressure, Hydrostatic Pressure [MPa]
 qt                                    :Total Cone Resistance, Total Cone Resistance [MPa]
 Fric_ratio                            :Friction Ratio, Friction Ratio [%]
 SigmaVert                             :Vertical stress, Vertical stress [kPa] as specified in ground model
 Qnet                                  :Net Cone Resistance, Net Cone Resistance [MPa], unit weight as specified in ground model
 Bq                                    :Porewater Pressure Ratio, Porewater Pressure Ratio [-], unit weight as specified in ground model


 Data table:
  Rec    Depth      Time       Cone   Friction     Pore 2 HydroPress         qt Fric_ratio  SigmaVert       Qnet         Bq
   No        m         s        MPa        MPa        MPa        MPa        MPa          %        kPa        MPa          -
    1    0.000   1571.19     0.0000                           0.0000     0.0000                0.0000     0.0000           
    2    0.020   1592.37     0.0017                           0.0002     0.0017                0.3200     0.0014           
    3    0.040   1613.55     0.0034                           0.0004     0.0034                0.6400     0.0028           
    4    0.060   1626.61     0.0043     0.0002     0.0003     0.0006     0.0043     4.9761     0.9600     0.0033    -0.1530
    5    0.080   1627.59     0.0041     0.0002     0.0006     0.0008     0.0043    12.7369     1.2800     0.0030    -0.3147
    6    0.100   1628.56     0.0051     0.0005     0.0009     0.0010     0.0054     8.5598     1.6000     0.0038    -0.0627
    7    0.120   1629.48     0.0057     0.0005     0.0011     0.0012     0.0062     7.9097     1.9200     0.0043    -0.0222
    8    0.140   1630.45     0.0082     0.0006     0.0011     0.0014     0.0086     7.2596     2.2400     0.0064    -0.0723
    9    0.160   1631.39     0.0111     0.0009     0.0007     0.0016     0.0115     8.0106     2.5600     0.0090    -0.0802
   10    0.180   1632.36     0.0128     0.0010     0.0001     0.0018     0.0129     7.9769     2.8800     0.0100    -0.1550
   11    0.200   1633.80     0.0103     0.0014    -0.0003     0.0020     0.0102    13.3507     3.2000     0.0070    -0.3221
   12    0.220   1637.70     0.0113     0.0011    -0.0004     0.0022     0.0111    11.3224     3.5200     0.0076    -0.3377
   13    0.240   1641.60     0.0122     0.0013    -0.0006     0.0024     0.0120    12.6056     3.8400     0.0082    -0.3532
   14    0.260   1644.90     0.0124     0.0014     0.0001     0.0026     0.0123    11.7086     4.1600     0.0081    -0.3516
   15    0.280   1645.84     0.0130     0.0015     0.0011     0.0028     0.0130    11.3466     4.4800     0.0086    -0.3018
   16    0.300   1646.83     0.0129     0.0013     0.0017     0.0030     0.0136    11.1653     4.8000     0.0088    -0.1585
   17    0.320   1647.79     0.0135     0.0013     0.0027     0.0032     0.0146    10.7120     5.1200     0.0095    -0.0464
   18    0.340   1648.70     0.0122     0.0014     0.0028     0.0034     0.0134    10.6864     5.4400     0.0080    -0.0600
   19    0.360   1649.69     0.0128     0.0016     0.0022     0.0036     0.0138    10.2407     5.7600     0.0080    -0.1463
   20    0.380   1650.64     0.0105     0.0014     0.0021     0.0038     0.0113    10.8478     6.0800     0.0052    -0.3708
   21    0.400   1651.57     0.0113     0.0015     0.0032     0.0040     0.0125    13.0413     6.4000     0.0061    -0.1919
   22    0.420   1652.52     0.0126     0.0016     0.0035     0.0042     0.0140    11.7136     6.7200     0.0073    -0.1096
   23    0.440   1653.47     0.0129     0.0015     0.0034     0.0044     0.0143    11.1815     7.0400     0.0072    -0.1544
   24    0.460   1654.40     0.0120     0.0019     0.0041     0.0046     0.0137    15.8041     7.3600     0.0063    -0.0893
   25    0.480   1655.37     0.0122     0.0018     0.0045     0.0048     0.0142    14.0805     7.6800     0.0065    -0.0199
   26    0.500   1656.32     0.0093     0.0017     0.0039     0.0050     0.0111    16.0357     8.0000     0.0031    -0.3086
   27    0.520   1657.27     0.0082     0.0016     0.0043     0.0052     0.0098    20.0659     8.3200     0.0015    -1.4448
   28    0.540   1658.23     0.0107     0.0016     0.0059     0.0054     0.0131    15.1599     8.6400     0.0045     0.0641
   29    0.560   1659.19     0.0087     0.0017     0.0068     0.0056     0.0115    16.9465     8.9600     0.0025     0.4449
   30    0.580   1660.12     0.0104     0.0018     0.0076     0.0058     0.0136    23.8821     9.2800     0.0043     0.5421
   31    0.600   1661.07     0.0078     0.0014     0.0074     0.0060     0.0109    18.7841     9.6000     0.0013     1.1898
   32    0.620   1662.03     0.0087     0.0016     0.0074     0.0062     0.0119    17.8392     9.9200     0.0019     0.7121
   33    0.640   1663.01     0.0093     0.0016     0.0071     0.0064     0.0122    21.4610    10.2400     0.0020     0.8002
   34    0.660   1663.96     0.0075     0.0016     0.0073     0.0066     0.0105    19.7705    10.5600     0.0000    -0.0350
   35    0.680   1664.90     0.0072     0.0017     0.0076     0.0068     0.0103    22.2893    10.8800    -0.0006     2.2340
   36    0.700   1665.83     0.0083     0.0017     0.0091     0.0070     0.0118    24.5193    11.2000     0.0006    -1.0047
   37    0.720   1666.78     0.0101     0.0017     0.0091     0.0072     0.0139    16.9184    11.5200     0.0024     0.8390
   38    0.740   1667.79     0.0117     0.0018     0.0103     0.0074     0.0157    15.9588    11.8400     0.0038     0.6116
   39    0.760   1668.74     0.0111     0.0019     0.0100     0.0076     0.0153    17.9668    12.1600     0.0032     0.7806
   40    0.780   1669.69     0.0094     0.0019     0.0103     0.0078     0.0137    19.6020    12.4800     0.0013     0.8996
   41    0.800   1670.61     0.0096     0.0019     0.0108     0.0080     0.0142    22.9024    12.8000     0.0014     1.4361
   42    0.820   1671.56     0.0086     0.0020     0.0103     0.0082     0.0129    28.6414    13.1200    -0.0002           
   43    0.840   1672.52     0.0092     0.0019     0.0110     0.0084     0.0137    22.3689    13.4400     0.0003     0.9882
   44    0.860   1673.44     0.0088     0.0019     0.0109     0.0086     0.0134    20.9897    13.7600    -0.0004     8.3843
   45    0.880   1674.44     0.0074     0.0021     0.0101     0.0088     0.0118    25.6100    14.0800    -0.0023    -1.0834
   46    0.900   1675.38     0.0088     0.0022     0.0121     0.0090     0.0137    25.8680    14.4000    -0.0007     2.3147
   47    0.920   1676.32     0.0082     0.0019     0.0114     0.0092     0.0130    24.9535    14.7200    -0.0017    -1.3486
   48    0.940   1677.27     0.0087     0.0021     0.0115     0.0094     0.0134    24.5185    15.0400    -0.0016    -1.1146
   49    0.960   1678.19     0.0062     0.0021     0.0131     0.0096     0.0115    27.3947    15.3600    -0.0039    -0.8465
   50    0.980   1679.19     0.0058     0.0020     0.0137     0.0098     0.0116    26.7937    15.6800    -0.0041    -0.9541
   51    1.000   1680.13     0.0075     0.0018     0.0143     0.0100     0.0134    24.5285    16.0000    -0.0026    -1.4954
   52    1.020   1681.07     0.0077     0.0016     0.0154     0.0102     0.0142    24.1886    16.3200    -0.0022    -2.5084
   53    1.040   1682.01     0.0092     0.0018     0.0154     0.0104     0.0157    24.4626    16.6400    -0.0010   -11.3967
   54    1.060   1682.97     0.0098     0.0020     0.0159     0.0106     0.0163    20.1978    16.9600    -0.0006    -7.6640
   55    1.080   1683.93     0.0105     0.0018     0.0165     0.0108     0.0173    16.7481    17.2800     0.0001    -1.3019
   56    1.100   1684.90     0.0102     0.0020     0.0163     0.0110     0.0170    17.5104    17.6000    -0.0006     1.2135
   57    1.120   1685.83     0.0105     0.0019     0.0151     0.0112     0.0172    19.6570    17.9200    -0.0007           
   58    1.140   1686.82     0.0094     0.0021     0.0154     0.0114     0.0161    21.2248    18.2400    -0.0021    -3.9498
   59    1.160   1687.75     0.0104     0.0021     0.0151     0.0116     0.0170    19.5152    18.5600    -0.0016    -3.5369
   60    1.180   1688.70     0.0154     0.0023     0.0157     0.0118     0.0220    18.0494    18.8800     0.0031     1.2338
   61    1.200   1689.70     0.0179     0.0022     0.0158     0.0120     0.0248    12.8451    19.2000     0.0056     0.7941
   62    1.220   1690.64     0.0197     0.0023     0.0132     0.0122     0.0254    12.7139    19.5200     0.0059     0.2353
   63    1.240   1691.60     0.0193     0.0021     0.0145     0.0124     0.0250    12.3164    19.8400     0.0051     0.2383
   64    1.260   1692.52     0.0175     0.0021     0.0161     0.0126     0.0241    11.9738    20.1600     0.0039     0.7611
   65    1.280   1693.47     0.0159     0.0022     0.0178     0.0128     0.0230    13.0486    20.4800     0.0026     1.7808
   66    1.300   1694.44     0.0185     0.0017     0.0194     0.0130     0.0265     8.8591    20.8000     0.0057     1.1696
   67    1.320   1695.39     0.0183     0.0021     0.0185     0.0132     0.0263    12.1223    21.1200     0.0052     1.1374
   68    1.340   1696.33     0.0205     0.0021     0.0207     0.0134     0.0288    10.6724    21.4400     0.0074     0.8695
   69    1.360   1697.30     0.0210     0.0022     0.0220     0.0136     0.0301    10.6807    21.7600     0.0084     0.9868
   70    1.380   1698.25     0.0222     0.0024     0.0236     0.0138     0.0319    10.7498    22.0800     0.0098     0.9435
   71    1.400   1699.20     0.0283     0.0021     0.0246     0.0140     0.0388     8.2410    22.4000     0.0164     0.6751
   72    1.420   1700.14     0.0298     0.0021     0.0255     0.0142     0.0405     6.1630    22.7200     0.0177     0.6402
   73    1.440   1701.09     0.0363     0.0027     0.0246     0.0144     0.0468     7.9323    23.0400     0.0238     0.4437
   74    1.460   1702.00     0.0385     0.0025     0.0225     0.0146     0.0484     7.1282    23.3600     0.0250     0.3636
   75    1.480   1703.00     0.0367     0.0025     0.0199     0.0148     0.0454     6.3311    23.6800     0.0217     0.2693
   76    1.500   1703.91     0.0379     0.0029     0.0161     0.0150     0.0454     7.3189    24.0000     0.0214     0.1286
   77    1.520   1704.87     0.0355     0.0026     0.0158     0.0152     0.0416     7.1060    24.3200     0.0173    -0.0438
   78    1.540   1705.84     0.0305     0.0026     0.0192     0.0154     0.0384     8.0645    24.6400     0.0137     0.2393
   79    1.560   1706.80     0.0305     0.0027     0.0199     0.0156     0.0388     8.9543    24.9600     0.0138     0.2879
   80    1.580   1707.74     0.0325     0.0027     0.0217     0.0158     0.0414     8.7156    25.2800     0.0162     0.3399
   81    1.600   1708.70     0.0310     0.0026     0.0214     0.0160     0.0400     8.2311    25.6000     0.0144     0.3684
   82    1.620   1709.67     0.0322     0.0024     0.0220     0.0162     0.0406     7.3264    25.9200     0.0147     0.2591
   83    1.640   1710.65     0.0335     0.0025     0.0263     0.0164     0.0439     7.5390    26.2400     0.0177     0.4837
   84    1.660   1711.56     0.0297     0.0024     0.0250     0.0166     0.0405     7.7010    26.5600     0.0139     0.6518
   85    1.680   1712.53     0.0284     0.0023     0.0275     0.0168     0.0394     7.7165    26.8800     0.0125     0.7532
   86    1.700   1713.47     0.0319     0.0024     0.0312     0.0170     0.0444     7.1339    27.2000     0.0172     0.7571
   87    1.720   1714.44     0.0287     0.0024     0.0342     0.0172     0.0427     8.3651    27.5200     0.0152     1.0677
   88    1.740   1715.38     0.0236     0.0021     0.0345     0.0174     0.0382     8.1814    27.8400     0.0103     1.7463
   89    1.760   1716.36     0.0219     0.0023     0.0307     0.0176     0.0350    10.7370    28.1600     0.0069     1.9868
   90    1.780   1717.31     0.0198     0.0021     0.0316     0.0178     0.0328     9.8778    28.4800     0.0043     3.4495
   91    1.800   1718.23     0.0159     0.0021     0.0348     0.0180     0.0301    12.3845    28.8000     0.0013    12.5481
   92    1.820   1719.22     0.0173     0.0022     0.0376     0.0182     0.0329    13.7876    29.1200     0.0038     5.0130
   93    1.840   1720.13     0.0224     0.0019     0.0394     0.0184     0.0386     9.9085    29.4400     0.0092     2.2665
   94    1.860   1721.11     0.0281     0.0020     0.0402     0.0186     0.0448     7.6185    29.7600     0.0150     1.4145
   95    1.880   1722.04     0.0330     0.0025     0.0422     0.0188     0.0505     9.1062    30.0800     0.0204     1.1429
   96    1.900   1723.02     0.0430     0.0025     0.0417     0.0190     0.0606     7.7303    30.4000     0.0302     0.7605
   97    1.920   1723.94     0.0467     0.0024     0.0404     0.0192     0.0641     6.3543    30.7200     0.0333     0.6673
   98    1.940   1724.91     0.0464     0.0023     0.0384     0.0194     0.0626     4.9520    31.0400     0.0316     0.6066
   99    1.960   1725.86     0.0471     0.0024     0.0409     0.0196     0.0638     5.0520    31.3600     0.0325     0.6226
  100    1.980   1726.81     0.0438     0.0020     0.0440     0.0198     0.0620     4.5241    31.6800     0.0303     0.7760
  101    2.000   1737.19     0.0482     0.0020     0.0443     0.0200     0.0668     4.7145    32.0000     0.0348     0.7309
  102    2.020   1753.22     0.0558     0.0020     0.0446     0.0202     0.0745     4.7142    32.3200     0.0422     0.6136
  103    2.040   1769.24     0.0635     0.0018     0.0454     0.0204     0.0823     4.1506    32.6400     0.0497     0.4964
  104    2.060   1772.09     0.0694     0.0018     0.0428     0.0206     0.0877     2.5848    32.9600     0.0548     0.4209
  105    2.080   1773.00     0.0698     0.0020     0.0395     0.0208     0.0868     3.0259    33.2800     0.0535     0.3688
  106    2.100   1773.95     0.0692     0.0021     0.0414     0.0210     0.0861     3.0209    33.6000     0.0525     0.3663
  107    2.120   1774.90     0.0611     0.0022     0.0444     0.0212     0.0794     3.5718    33.9200     0.0455     0.4934
  108    2.140   1775.86     0.0604     0.0021     0.0474     0.0214     0.0802     3.4567    34.2400     0.0459     0.5574
  109    2.160   1776.81     0.0608     0.0020     0.0492     0.0216     0.0813     3.2381    34.5600     0.0468     0.5844
  110    2.180   1777.77     0.0645     0.0020     0.0474     0.0218     0.0844     3.2708    34.8800     0.0496     0.5209
  111    2.200   1778.74     0.0800     0.0022     0.0484     0.0220     0.1000     3.0838    35.2000     0.0648     0.3946
  112    2.220   1779.69     0.0933     0.0021     0.0506     0.0222     0.1146     2.3252    35.5200     0.0790     0.3594
  113    2.240   1780.63     0.0930     0.0026     0.0494     0.0224     0.1144     2.7913    35.8400     0.0785     0.3633
  114    2.260   1781.56     0.0946     0.0023     0.0464     0.0226     0.1145     2.4881    36.1600     0.0784     0.3183
  115    2.280   1782.53     0.0895     0.0032     0.0446     0.0228     0.1084     3.5189    36.4800     0.0720     0.3090
  116    2.300   1783.44     0.0860     0.0027     0.0412     0.0230     0.1039     3.0558    36.8000     0.0671     0.2935
  117    2.320   1784.42     0.0874     0.0030     0.0383     0.0232     0.1038     3.4654    37.1200     0.0667     0.2376
  118    2.340   1785.37     0.0862     0.0032     0.0342     0.0234     0.1010     3.7143    37.4400     0.0636     0.1852
  119    2.360   1786.34     0.0895     0.0031     0.0351     0.0236     0.1035     3.5514    37.7600     0.0657     0.1449
  120    2.380   1787.27     0.0854     0.0028     0.0353     0.0238     0.1012     3.1409    38.0800     0.0631     0.2180
  121    2.400   1788.20     0.0823     0.0032     0.0243     0.0240     0.0934     3.8809    38.4000     0.0550     0.0467
  122    2.420   1789.18     0.0836     0.0031     0.0224     0.0242     0.0932     3.7899    38.7200     0.0544    -0.0250
  123    2.440   1790.11     0.0897     0.0036     0.0271     0.0244     0.0998     4.1706    39.0400     0.0608    -0.0048
  124    2.460   1791.03     0.0957     0.0032     0.0351     0.0246     0.1096     3.4659    39.3600     0.0702     0.1204
  125    2.480   1792.00     0.0976     0.0035     0.0395     0.0248     0.1136     3.5814    39.6800     0.0739     0.1809
  126    2.500   1792.93     0.0970     0.0037     0.0377     0.0250     0.1135     3.8608    40.0000     0.0735     0.1935
  127    2.520   1793.90     0.1112     0.0039     0.0400     0.0252     0.1271     3.7438    40.3200     0.0868     0.1450
  128    2.540   1794.84     0.1178     0.0040     0.0420     0.0254     0.1356     3.4148    40.6400     0.0950     0.1793
  129    2.560   1795.79     0.1158     0.0043     0.0388     0.0256     0.1329     3.7017    40.9600     0.0919     0.1645
  130    2.580   1796.73     0.1223     0.0042     0.0384     0.0258     0.1396     3.5106    41.2800     0.0983     0.1561
  131    2.600   1797.70     0.1217     0.0042     0.0420     0.0260     0.1383     3.4687    41.6000     0.0967     0.1410
  132    2.620   1798.64     0.1152     0.0042     0.0490     0.0262     0.1352     3.6082    41.9200     0.0933     0.2292
  133    2.640   1799.57     0.1170     0.0044     0.0490     0.0264     0.1379     3.7187    42.2400     0.0957     0.2459
  134    2.660   1800.51     0.1152     0.0037     0.0532     0.0266     0.1365     3.1614    42.5600     0.0940     0.2562
