

 Program UNIPLOT                         version 05.36.02
 _______________
 (c) Fugro Netherlands Marine, Nootdorp, The Netherlands


 ASCII representation of data plotted on a graph.

 This ASCII file presents data interpolated to values per fixed depth interval.
 The data are corrected for the depth-offset differences between the various 
 transducers in the penetrometer.

 The records at the start of penetration may include no values or anomalous
 values where a depth offset implies incomplete penetration of a particular
 sensor into the ground.

 The records at the end of penetration may include no values for data channels
 where the transducer did not reach this depth.

 The reference level for test values is (1) the ground surface for onshore tests and (2) the seafloor for nearshore and offshore tests.

 UNICAS data file          : CPT-1027(S).001                         
 Output using command file : PlotASCII.cmd

 ASCII file created at : date          :24-May-2022
                         time          :16:07:24
 Project number                        :20024805                                                                                            
 Date of testing                       :23-Apr-2022                                                                                         
 Location                              :Hong Kong Offshore Wind Farm Project                                                                
 Test name                             :CPT-1027(S)
 Penetrometer                          :F7.5CKE2X3S\B\2753
 Serial no                             :1701-2753

 Table description:
 Column ID                             :Parameter name
 ___________________________________________________________________________________
 Rec                                   :Record ID, Record ID [-]
 Depth                                 :Depth, Depth [m]
 Time                                  :Time, Time [s]
 Cone                                  :Cone Resistance, Cone Resistance [MPa]
 Friction                              :Sleeve Friction, Sleeve Friction [MPa]
 Pore 2                                :Porewater Pressure, Porewater Pressure at Shoulder [MPa]
 HydroPress                            :Hydrostatic Pressure, Hydrostatic Pressure [MPa]
 qt                                    :Total Cone Resistance, Total Cone Resistance [MPa]
 Fric_ratio                            :Friction Ratio, Friction Ratio [%]
 SigmaVert                             :Vertical stress, Vertical stress [kPa] as specified in ground model
 Qnet                                  :Net Cone Resistance, Net Cone Resistance [MPa], unit weight as specified in ground model
 Bq                                    :Porewater Pressure Ratio, Porewater Pressure Ratio [-], unit weight as specified in ground model


 Data table:
  Rec    Depth      Time       Cone   Friction     Pore 2 HydroPress         qt Fric_ratio  SigmaVert       Qnet         Bq
   No        m         s        MPa        MPa        MPa        MPa        MPa          %        kPa        MPa          -
    1    0.000   1886.50     0.0000                           0.0000     0.0000                0.0000     0.0000           
    2    0.020   1887.41     0.0012                0.0003     0.0002     0.0013                0.3200     0.0009           
    3    0.040   1888.33     0.0041                0.0004     0.0004     0.0044                0.6400     0.0037     0.0486
    4    0.060   1889.28     0.0064     0.0005    -0.0002     0.0006     0.0063     7.8337     0.9600     0.0054    -0.1294
    5    0.080   1890.20     0.0073     0.0006    -0.0009     0.0008     0.0071     8.6645     1.2800     0.0058    -0.2106
    6    0.100   1891.11     0.0090     0.0007    -0.0020     0.0010     0.0083     7.9927     1.6000     0.0067    -0.3998
    7    0.120   1892.07     0.0100     0.0008    -0.0015     0.0012     0.0091     7.6254     1.9200     0.0072    -0.4687
    8    0.140   1892.98     0.0102     0.0009    -0.0010     0.0014     0.0095     8.4079     2.2400     0.0072    -0.4363
    9    0.160   1893.89     0.0104     0.0009     0.0007     0.0016     0.0107     8.4891     2.5600     0.0082    -0.1059
   10    0.180   1894.80     0.0113     0.0009     0.0006     0.0018     0.0115     8.4496     2.8800     0.0086    -0.1684
   11    0.200   1895.76     0.0124     0.0010     0.0010     0.0020     0.0127     8.6271     3.2000     0.0095    -0.1270
   12    0.220   1896.67     0.0125     0.0011     0.0014     0.0022     0.0131     9.0752     3.5200     0.0096    -0.0895
   13    0.240   1897.59     0.0126     0.0012     0.0014     0.0024     0.0133     9.2331     3.8400     0.0094    -0.0910
   14    0.260   1898.54     0.0130     0.0012     0.0008     0.0026     0.0134     9.2440     4.1600     0.0093    -0.1549
   15    0.280   1899.46     0.0130     0.0013    -0.0005     0.0028     0.0127    10.0672     4.4800     0.0082    -0.4080
   16    0.300   1900.37     0.0122     0.0015    -0.0007     0.0030     0.0118    11.1762     4.8000     0.0070    -0.5500
   17    0.320   1901.33     0.0102     0.0015     0.0013     0.0032     0.0104    13.2704     5.1200     0.0052    -0.5480
   18    0.340   1902.24     0.0210     0.0015     0.0009     0.0034     0.0218    11.1181     5.4400     0.0163    -0.0962
   19    0.360   1903.17     0.0191     0.0014     0.0017     0.0036     0.0197     5.9252     5.7600     0.0140    -0.1714
   20    0.380   1904.11     0.0088     0.0013     0.0024     0.0038     0.0090    11.4805     6.0800     0.0029    -1.0966
   21    0.400   1905.02     0.0070     0.0012     0.0040     0.0040     0.0087    12.5131     6.4000     0.0023     0.0266
   22    0.420   1905.98     0.0068     0.0010     0.0052     0.0042     0.0088    13.5458     6.7200     0.0021     0.3062
   23    0.440   1906.89     0.0066     0.0010     0.0045     0.0044     0.0088    15.2836     7.0400     0.0017     0.3954
   24    0.460   1907.83     0.0064     0.0010     0.0032     0.0046     0.0078    14.9933     7.3600     0.0004    -6.3962
   25    0.480   1908.76     0.0075     0.0011     0.0058     0.0048     0.0095    14.5074     7.6800     0.0018    -0.2780
   26    0.500   1921.96     0.0059     0.0011     0.0057     0.0050     0.0083    15.2471     8.0000     0.0003     0.2947
   27    0.520   1939.52     0.0038     0.0011     0.0056     0.0052     0.0062    14.4819     8.3200    -0.0021     0.0816
   28    0.540   1951.32     0.0022     0.0011     0.0031     0.0054     0.0045    33.6319     8.6400    -0.0042     0.0302
   29    0.560   1952.25     0.0018     0.0011     0.0013     0.0056     0.0014    54.0647     8.9600    -0.0076     0.8467
   30    0.580   1953.19     0.0006     0.0012     0.0061     0.0058     0.0027   200.6349     9.2800    -0.0066     0.1366
   31    0.600   1954.10     0.0004     0.0011     0.0060     0.0060     0.0026   265.5289     9.6000    -0.0070     0.1108
   32    0.620   1955.01     0.0007     0.0010     0.0069     0.0062     0.0031   149.3648     9.9200    -0.0068     0.0799
   33    0.640   1955.97     0.0017     0.0011     0.0080     0.0064     0.0053    63.5630    10.2400    -0.0050    -0.4176
   34    0.660   1956.88     0.0025     0.0010     0.0067     0.0066     0.0052    42.8338    10.5600    -0.0054     0.0255
   35    0.680   1957.79     0.0027     0.0010     0.0089     0.0068     0.0062    39.6540    10.8800    -0.0047    -0.3464
   36    0.700   1958.71     0.0015     0.0010     0.0082     0.0070     0.0049    85.2781    11.2000    -0.0063    -0.1939
   37    0.720   1959.58     0.0019     0.0009     0.0091     0.0072     0.0055    50.3412    11.5200    -0.0060    -0.2299
   38    0.740   1960.54     0.0030     0.0009     0.0106     0.0074     0.0074    31.4440    11.8400    -0.0044    -0.6811
   39    0.760   1961.49     0.0033     0.0010     0.0109     0.0076     0.0078    29.8321    12.1600    -0.0043    -0.7465
   40    0.780   1962.40     0.0041     0.0010     0.0112     0.0078     0.0086    27.5986    12.4800    -0.0039    -0.7578
   41    0.800   1963.31     0.0052     0.0011     0.0116     0.0080     0.0100    25.2080    12.8000    -0.0028    -1.2902
   42    0.820   1964.27     0.0087     0.0013     0.0116     0.0082     0.0138    15.8646    13.1200     0.0006    -3.1075
   43    0.840   1965.18     0.0125     0.0015     0.0124     0.0084     0.0175    14.2444    13.4400     0.0040     0.8814
   44    0.860   1966.10     0.0149     0.0017     0.0129     0.0086     0.0198    12.6243    13.7600     0.0060     0.5170
   45    0.880   1967.06     0.0152     0.0018     0.0118     0.0088     0.0200    11.6748    14.0800     0.0059     0.4234
   46    0.900   1967.93     0.0153     0.0016     0.0128     0.0090     0.0207    10.3179    14.4000     0.0063     0.5904
   47    0.920   1968.88     0.0148     0.0015     0.0129     0.0092     0.0201     9.4829    14.7200     0.0054     0.6445
   48    0.940   1987.10     0.0166     0.0014     0.0141     0.0094     0.0223     9.3169    15.0400     0.0073     0.6143
   49    0.960   2007.94     0.0188     0.0012     0.0153     0.0096     0.0251     8.1735    15.3600     0.0097     0.5620
   50    0.980   2023.25     0.0206     0.0012     0.0159     0.0098     0.0272     6.6388    15.6800     0.0116     0.5279
   51    1.000   2024.21     0.0205     0.0012     0.0137     0.0100     0.0266     5.9477    16.0000     0.0106     0.4253
   52    1.020   2025.12     0.0211     0.0012     0.0111     0.0102     0.0262     5.6014    16.3200     0.0099     0.1845
   53    1.040   2026.04     0.0218     0.0012     0.0107     0.0104     0.0264     5.4190    16.6400     0.0097     0.0428
   54    1.060   2026.99     0.0225     0.0012     0.0102     0.0106     0.0267     5.4853    16.9600     0.0097    -0.0530
   55    1.080   2027.91     0.0227     0.0014     0.0133     0.0108     0.0277     6.0846    17.2800     0.0104     0.1134
   56    1.100   2028.83     0.0227     0.0014     0.0156     0.0110     0.0290     6.3314    17.6000     0.0114     0.3642
   57    1.120   2029.73     0.0228     0.0015     0.0137     0.0112     0.0289     6.6326    17.9200     0.0110     0.3068
   58    1.140   2030.69     0.0221     0.0015     0.0140     0.0114     0.0278     6.7590    18.2400     0.0096     0.2228
   59    1.160   2031.60     0.0214     0.0016     0.0137     0.0116     0.0272     7.3757    18.5600     0.0086     0.2630
   60    1.180   2032.52     0.0209     0.0016     0.0152     0.0118     0.0272     7.7875    18.8800     0.0083     0.3606
   61    1.200   2033.43     0.0208     0.0016     0.0162     0.0120     0.0271     7.7208    19.2000     0.0079     0.3861
   62    1.220   2034.39     0.0208     0.0015     0.0194     0.0122     0.0286     7.2246    19.5200     0.0091     0.7012
   63    1.240   2035.30     0.0247     0.0014     0.0212     0.0124     0.0334     5.9172    19.8400     0.0135     0.6139
   64    1.260   2036.19     0.0299     0.0016     0.0229     0.0126     0.0393     5.7312    20.1600     0.0191     0.5117
   65    1.280   2037.12     0.0360     0.0018     0.0223     0.0128     0.0456     5.3107    20.4800     0.0251     0.4021
   66    1.300   2038.04     0.0410     0.0018     0.0192     0.0130     0.0493     4.7688    20.8000     0.0285     0.2396
   67    1.320   2038.99     0.0401     0.0020     0.0154     0.0132     0.0471     4.9817    21.1200     0.0260     0.1267
   68    1.340   2039.91     0.0399     0.0021     0.0136     0.0134     0.0455     5.2356    21.4400     0.0240    -0.0107
   69    1.360   2040.82     0.0399     0.0022     0.0179     0.0136     0.0467     5.5045    21.7600     0.0249     0.1033
   70    1.380   2041.78     0.0389     0.0022     0.0208     0.0138     0.0475     5.7051    22.0800     0.0254     0.2607
   71    1.400   2042.71     0.0386     0.0021     0.0214     0.0140     0.0474     5.4841    22.4000     0.0250     0.2859
   72    1.420   2043.61     0.0387     0.0020     0.0172     0.0142     0.0469     5.1364    22.7200     0.0242     0.2203
   73    1.440   2044.56     0.0390     0.0021     0.0193     0.0144     0.0466     5.3773    23.0400     0.0235     0.1543
   74    1.460   2045.47     0.0372     0.0021     0.0217     0.0146     0.0467     5.4454    23.3600     0.0233     0.3450
   75    1.480   2046.43     0.0368     0.0020     0.0211     0.0148     0.0456     5.5445    23.6800     0.0220     0.2845
   76    1.500   2047.34     0.0357     0.0020     0.0234     0.0150     0.0450     5.6448    24.0000     0.0210     0.3413
   77    1.520   2048.30     0.0361     0.0020     0.0256     0.0152     0.0466     5.6602    24.3200     0.0223     0.4461
   78    1.540   2049.21     0.0358     0.0019     0.0283     0.0154     0.0472     5.3368    24.6400     0.0226     0.5214
   79    1.560   2050.13     0.0353     0.0019     0.0315     0.0156     0.0482     5.3103    24.9600     0.0232     0.6425
   80    1.580   2050.99     0.0350     0.0019     0.0339     0.0158     0.0489     5.3575    25.2800     0.0236     0.7284
   81    1.600   2052.00     0.0345     0.0018     0.0366     0.0160     0.0496     5.3387    25.6000     0.0240     0.8299
   82    1.620   2052.90     0.0369     0.0019     0.0380     0.0162     0.0528     5.2661    25.9200     0.0269     0.8095
   83    1.640   2053.82     0.0420     0.0019     0.0375     0.0164     0.0579     4.6846    26.2400     0.0317     0.6769
   84    1.660   2054.78     0.0453     0.0020     0.0386     0.0166     0.0612     4.6068    26.5600     0.0346     0.6105
   85    1.680   2055.66     0.0471     0.0021     0.0376     0.0168     0.0635     4.5289    26.8800     0.0366     0.6091
   86    1.700   2056.60     0.0497     0.0021     0.0384     0.0170     0.0655     4.3800    27.2000     0.0383     0.5341
   87    1.720   2057.52     0.0505     0.0023     0.0401     0.0172     0.0672     4.4955    27.5200     0.0397     0.5684
   88    1.740   2058.43     0.0512     0.0024     0.0392     0.0174     0.0679     4.6050    27.8400     0.0401     0.5595
   89    1.760   2062.33     0.0477     0.0023     0.0370     0.0176     0.0636     4.5475    28.1600     0.0354     0.5719
   90    1.780   2066.48     0.0440     0.0024     0.0348     0.0178     0.0590     4.7334    28.4800     0.0305     0.5864
   91    1.800   2070.53     0.0404     0.0023     0.0335     0.0180     0.0544     4.5647    28.8000     0.0256     0.6017
   92    1.820   2071.49     0.0393     0.0022     0.0373     0.0182     0.0542     5.6099    29.1200     0.0250     0.6855
   93    1.840   2072.40     0.0464     0.0024     0.0423     0.0184     0.0636     5.2886    29.4400     0.0341     0.6603
   94    1.860   2073.34     0.0483     0.0025     0.0449     0.0186     0.0670     5.3304    29.7600     0.0373     0.6972
   95    1.880   2074.27     0.0494     0.0024     0.0434     0.0188     0.0678     4.9162    30.0800     0.0378     0.6643
   96    1.900   2075.18     0.0534     0.0024     0.0406     0.0190     0.0709     4.6280    30.4000     0.0405     0.5586
   97    1.920   2076.11     0.0548     0.0022     0.0439     0.0192     0.0727     4.0800    30.7200     0.0419     0.5531
   98    1.940   2077.05     0.0564     0.0024     0.0468     0.0194     0.0758     4.3132    31.0400     0.0448     0.5986
   99    1.960   2077.96     0.0624     0.0028     0.0479     0.0196     0.0823     4.8016    31.3600     0.0510     0.5460
  100    1.980   2078.89     0.0732     0.0028     0.0447     0.0198     0.0926     4.0753    31.6800     0.0609     0.4345
  101    2.000   2079.84     0.0759     0.0029     0.0409     0.0200     0.0935     3.7645    32.0000     0.0615     0.3557
  102    2.020   2080.77     0.0715     0.0028     0.0338     0.0202     0.0870     3.8063    32.3200     0.0546     0.3036
  103    2.040   2081.69     0.0690     0.0029     0.0351     0.0204     0.0834     4.1171    32.6400     0.0508     0.2718
  104    2.060   2082.62     0.0670     0.0032     0.0448     0.0206     0.0846     4.7167    32.9600     0.0516     0.4108
  105    2.080   2083.54     0.0687     0.0033     0.0518     0.0208     0.0895     4.8501    33.2800     0.0563     0.5113
  106    2.100   2084.49     0.0690     0.0031     0.0550     0.0210     0.0920     4.4782    33.6000     0.0584     0.5798
  107    2.120   2085.40     0.0755     0.0030     0.0524     0.0212     0.0977     4.2138    33.9200     0.0638     0.4985
  108    2.140   2086.35     0.0806     0.0030     0.0549     0.0214     0.1034     3.8339    34.2400     0.0692     0.4780
  109    2.160   2087.23     0.0838     0.0031     0.0518     0.0216     0.1060     3.8250    34.5600     0.0714     0.4392
  110    2.180   2088.19     0.0860     0.0031     0.0491     0.0218     0.1070     3.6624    34.8800     0.0721     0.3919
  111    2.200   2089.11     0.0852     0.0032     0.0497     0.0220     0.1055     3.7088    35.2000     0.0703     0.3760
  112    2.220   2090.06     0.0858     0.0030     0.0549     0.0222     0.1082     3.5506    35.5200     0.0727     0.4298
  113    2.240   2090.97     0.0854     0.0030     0.0571     0.0224     0.1095     3.4835    35.8400     0.0737     0.4739
  114    2.260   2091.88     0.0842     0.0031     0.0542     0.0226     0.1078     3.6046    36.1600     0.0716     0.4688
  115    2.280   2092.79     0.0796     0.0032     0.0505     0.0228     0.1010     3.8925    36.4800     0.0645     0.4370
  116    2.300   2093.71     0.0768     0.0031     0.0469     0.0230     0.0973     4.0362    36.8000     0.0605     0.4252
  117    2.320   2094.63     0.0728     0.0032     0.0442     0.0232     0.0916     4.2095    37.1200     0.0545     0.3978
  118    2.340   2095.61     0.0668     0.0033     0.0429     0.0234     0.0851     4.8667    37.4400     0.0477     0.4252
  119    2.360   2096.49     0.0637     0.0033     0.0466     0.0236     0.0824     4.9483    37.7600     0.0446     0.4673
  120    2.380   2097.45     0.0615     0.0032     0.0517     0.0238     0.0826     4.9289    38.0800     0.0445     0.5963
  121    2.400   2098.41     0.0667     0.0032     0.0508     0.0240     0.0883     4.8115    38.4000     0.0499     0.5515
  122    2.420   2099.27     0.0700     0.0032     0.0510     0.0242     0.0912     4.6347    38.7200     0.0525     0.4983
  123    2.440   2100.23     0.0720     0.0033     0.0575     0.0244     0.0951     4.5530    39.0400     0.0561     0.5474
  124    2.460   2101.16     0.0698     0.0033     0.0612     0.0246     0.0950     4.7435    39.3600     0.0556     0.6360
  125    2.480   2104.22     0.0696     0.0035     0.0564     0.0248     0.0933     5.1446    39.6800     0.0536     0.5957
  126    2.500   2124.07     0.0813     0.0036     0.0560     0.0250     0.1048     5.2799    40.0000     0.0648     0.5007
  127    2.520   2143.93     0.0930     0.0038     0.0562     0.0252     0.1164     5.5885    40.3200     0.0761     0.4058
  128    2.540   2147.32     0.0974     0.0036     0.0582     0.0254     0.1216     3.7698    40.6400     0.0810     0.3999
  129    2.560   2148.25     0.1032     0.0036     0.0609     0.0256     0.1281     3.4925    40.9600     0.0871     0.3900
  130    2.580   2149.21     0.0988     0.0035     0.0670     0.0258     0.1262     3.5729    41.2800     0.0849     0.4620
  131    2.600   2150.12     0.1027     0.0035     0.0724     0.0260     0.1326     3.4425    41.6000     0.0910     0.4962
  132    2.620   2151.04     0.1055     0.0035     0.0722     0.0262     0.1360     3.3562    41.9200     0.0941     0.4936
  133    2.640   2151.99     0.1104     0.0034     0.0691     0.0264     0.1394     3.0587    42.2400     0.0971     0.4384
  134    2.660   2152.90     0.1103     0.0036     0.0689     0.0266     0.1392     3.3031    42.5600     0.0966     0.4351
