

 Program UNIPLOT                         version 05.36.02
 _______________
 (c) Fugro Netherlands Marine, Nootdorp, The Netherlands


 ASCII representation of data plotted on a graph.

 This ASCII file presents data interpolated to values per fixed depth interval.
 The data are corrected for the depth-offset differences between the various 
 transducers in the penetrometer.

 The records at the start of penetration may include no values or anomalous
 values where a depth offset implies incomplete penetration of a particular
 sensor into the ground.

 The records at the end of penetration may include no values for data channels
 where the transducer did not reach this depth.

 The reference level for test values is (1) the ground surface for onshore tests and (2) the seafloor for nearshore and offshore tests.

 UNICAS data file          : CPT-2009.000                            
 Output using command file : PlotASCII.cmd

 ASCII file created at : date          :14-Jul-2022
                         time          :13:57:26
 Project number                        :20024805                                                                                            
 Date of testing                       :12-Jul-2022                                                                                         
 Location                              :Hong Kong Offshore Wind Farm Project                                                                
 Test name                             :CPT-2009
 Penetrometer                          :F7.5CKE2HAW2/B/3285
 Serial no                             :1701-3285

 Table description:
 Column ID                             :Parameter name
 ___________________________________________________________________________________
 Rec                                   :Record ID, Record ID [-]
 Depth                                 :Depth, Depth [m]
 Time                                  :Time, Time [s]
 Cone                                  :Cone Resistance, Cone Resistance [MPa]
 Friction                              :Sleeve Friction, Sleeve Friction [MPa]
 Pore 2                                :Porewater Pressure, Porewater Pressure at Shoulder [MPa]
 HydroPress                            :Hydrostatic Pressure, Hydrostatic Pressure [MPa]
 qt                                    :Total Cone Resistance, Total Cone Resistance [MPa]
 Fric_ratio                            :Friction Ratio, Friction Ratio [%]
 SigmaVert                             :Vertical stress, Vertical stress [kPa] as specified in ground model
 Qnet                                  :Net Cone Resistance, Net Cone Resistance [MPa], unit weight as specified in ground model
 Bq                                    :Porewater Pressure Ratio, Porewater Pressure Ratio [-], unit weight as specified in ground model


 Data table:
  Rec    Depth      Time       Cone   Friction     Pore 2 HydroPress         qt Fric_ratio  SigmaVert       Qnet         Bq
   No        m         s        MPa        MPa        MPa        MPa        MPa          %        kPa        MPa          -
    1    0.000   1956.59     0.0000                           0.0000     0.0000                0.0000     0.0000           
    2    0.020   1957.65     0.0048                0.0003     0.0002     0.0049                0.3200     0.0046     0.0024
    3    0.040   1958.69     0.0066                0.0006     0.0004     0.0068                0.6400     0.0062     0.0335
    4    0.060   1959.67     0.0077     0.0000     0.0005     0.0006     0.0079     0.2965     0.9600     0.0069    -0.0336
    5    0.080   1960.68     0.0075     0.0005     0.0008     0.0008     0.0078     6.8327     1.2800     0.0065    -0.0147
    6    0.100   1961.67     0.0082     0.0002     0.0008     0.0010     0.0085     1.8571     1.6000     0.0069    -0.0475
    7    0.120   1962.72     0.0064     0.0001     0.0009     0.0012     0.0067     1.9158     1.9200     0.0048    -0.0944
    8    0.140   1963.72     0.0091     0.0005     0.0010     0.0014     0.0095     5.3654     2.2400     0.0072    -0.0577
    9    0.160   1964.73     0.0074     0.0002     0.0012     0.0016     0.0079     3.7059     2.5600     0.0053    -0.1201
   10    0.180   1965.77     0.0058     0.0003     0.0017     0.0018     0.0065     5.5187     2.8800     0.0036    -0.1144
   11    0.200   1966.78     0.0101     0.0004     0.0022     0.0020     0.0110     5.0563     3.2000     0.0078     0.0046
   12    0.220   1967.78     0.0129     0.0005     0.0022     0.0022     0.0138     4.5938     3.5200     0.0103     0.0021
   13    0.240   1968.75     0.0121     0.0003     0.0028     0.0024     0.0131     2.2444     3.8400     0.0093     0.0009
   14    0.260   1969.78     0.0186     0.0009     0.0029     0.0026     0.0198     5.1181     4.1600     0.0157     0.0290
   15    0.280   1970.82     0.0207     0.0008     0.0022     0.0028     0.0218     4.4291     4.4800     0.0173    -0.0077
   16    0.300   1973.43     0.0228     0.0011     0.0007     0.0030     0.0233     4.7230     4.8000     0.0185    -0.1012
   17    0.320   1976.79     0.0231     0.0012    -0.0009     0.0032     0.0230     5.4648     5.1200     0.0179    -0.2039
   18    0.340   1980.11     0.0235     0.0012    -0.0011     0.0034     0.0228     4.9714     5.4400     0.0173    -0.3021
   19    0.360   1981.07     0.0225     0.0011     0.0017     0.0036     0.0228     4.5839     5.7600     0.0170    -0.1741
   20    0.380   1982.08     0.0229     0.0011     0.0018     0.0038     0.0232     4.7996     6.0800     0.0171    -0.1886
   21    0.400   1983.09     0.0230     0.0011     0.0043     0.0040     0.0246     5.0410     6.4000     0.0182    -0.0106
   22    0.420   1984.18     0.0229     0.0016     0.0046     0.0042     0.0250     6.8424     6.7200     0.0183     0.0411
   23    0.440   1985.14     0.0254     0.0016     0.0044     0.0044     0.0277     6.3850     7.0400     0.0206     0.0420
   24    0.460   1986.09     0.0291     0.0015     0.0034     0.0046     0.0307     4.9954     7.3600     0.0234    -0.0337
   25    0.480   1987.10     0.0292     0.0015    -0.0008     0.0048     0.0295     5.2557     7.6800     0.0218    -0.1859
   26    0.500   1988.14     0.0277     0.0015    -0.0028     0.0050     0.0263     5.2314     8.0000     0.0183    -0.4660
   27    0.520   1989.19     0.0266     0.0016     0.0025     0.0052     0.0270     6.1348     8.3200     0.0187    -0.2137
   28    0.540   1990.20     0.0275     0.0018     0.0038     0.0054     0.0290     6.6225     8.6400     0.0203    -0.0889
   29    0.560   1991.17     0.0276     0.0018     0.0042     0.0056     0.0293     6.6838     8.9600     0.0203    -0.0776
   30    0.580   1992.16     0.0276     0.0017    -0.0023     0.0058     0.0295     6.2917     9.2800     0.0202    -0.0566
   31    0.600   1993.16     0.0292     0.0017     0.0056     0.0060     0.0312     5.7635     9.6000     0.0216    -0.0587
   32    0.620   1994.22     0.0269     0.0014     0.0056     0.0062     0.0292     5.0728     9.9200     0.0193    -0.0385
   33    0.640   1995.30     0.0266     0.0019     0.0090     0.0064     0.0299     6.9339    10.2400     0.0197     0.0772
   34    0.660   1996.31     0.0267     0.0016     0.0108     0.0066     0.0311     6.2087    10.5600     0.0205     0.1928
   35    0.680   1997.32     0.0290     0.0015     0.0100     0.0068     0.0334     5.1711    10.8800     0.0225     0.1608
   36    0.700   1998.33     0.0305     0.0015     0.0092     0.0070     0.0344     4.9730    11.2000     0.0232     0.1010
   37    0.720   1999.28     0.0341     0.0018     0.0087     0.0072     0.0377     5.5140    11.5200     0.0262     0.0611
   38    0.740   2000.24     0.0336     0.0020     0.0089     0.0074     0.0373     5.9297    11.8400     0.0255     0.0560
   39    0.760   2001.56     0.0329     0.0026     0.0091     0.0076     0.0367     7.9759    12.1600     0.0245     0.0520
   40    0.780   2004.31     0.0347     0.0025     0.0096     0.0078     0.0386     7.7937    12.4800     0.0262     0.0623
   41    0.800   2007.07     0.0364     0.0024     0.0101     0.0080     0.0406     6.5702    12.8000     0.0278     0.0725
   42    0.820   2024.69     0.0352     0.0022     0.0102     0.0082     0.0395     6.0605    13.1200     0.0264     0.0763
   43    0.840   2063.04     0.0336     0.0023     0.0103     0.0084     0.0380     6.2687    13.4400     0.0245     0.0777
   44    0.860   2084.03     0.0307     0.0022     0.0125     0.0086     0.0356     7.1500    13.7600     0.0218     0.1366
   45    0.880   2085.07     0.0301     0.0019     0.0142     0.0088     0.0358     6.3664    14.0800     0.0217     0.2120
   46    0.900   2086.10     0.0290     0.0019     0.0147     0.0090     0.0350     6.6367    14.4000     0.0206     0.2652
   47    0.920   2087.11     0.0313     0.0020     0.0151     0.0092     0.0375     6.3946    14.7200     0.0228     0.2466
   48    0.940   2088.15     0.0275     0.0018     0.0152     0.0094     0.0339     6.3780    15.0400     0.0189     0.3139
   49    0.960   2089.11     0.0326     0.0022     0.0155     0.0096     0.0388     6.6184    15.3600     0.0235     0.2236
   50    0.980   2090.17     0.0337     0.0022     0.0158     0.0098     0.0403     6.3966    15.6800     0.0246     0.2415
   51    1.000   2091.13     0.0309     0.0023     0.0164     0.0100     0.0378     7.3510    16.0000     0.0218     0.2986
   52    1.020   2092.19     0.0298     0.0020     0.0154     0.0102     0.0364     6.6933    16.3200     0.0201     0.2695
   53    1.040   2093.20     0.0303     0.0021     0.0148     0.0104     0.0365     6.8444    16.6400     0.0199     0.2217
   54    1.060   2094.17     0.0353     0.0024     0.0148     0.0106     0.0415     6.6653    16.9600     0.0245     0.1687
   55    1.080   2095.21     0.0324     0.0024     0.0173     0.0108     0.0392     7.2200    17.2800     0.0219     0.2465
   56    1.100   2096.22     0.0311     0.0021     0.0202     0.0110     0.0390     6.6412    17.6000     0.0214     0.3721
   57    1.120   2097.23     0.0345     0.0021     0.0203     0.0112     0.0429     6.0339    17.9200     0.0250     0.3498
   58    1.140   2098.23     0.0344     0.0021     0.0211     0.0114     0.0432     6.0485    18.2400     0.0250     0.3868
   59    1.160   2099.22     0.0341     0.0014     0.0196     0.0116     0.0424     4.1714    18.5600     0.0238     0.3452
   60    1.180   2100.23     0.0318     0.0019     0.0200     0.0118     0.0403     5.8650    18.8800     0.0214     0.3903
   61    1.200   2101.25     0.0351     0.0023     0.0201     0.0120     0.0435     7.2127    19.2000     0.0243     0.3433
   62    1.220   2102.28     0.0430     0.0022     0.0186     0.0122     0.0510     5.0328    19.5200     0.0315     0.2198
   63    1.240   2103.29     0.0423     0.0023     0.0184     0.0124     0.0500     5.3055    19.8400     0.0302     0.1942
   64    1.260   2104.27     0.0438     0.0023     0.0188     0.0126     0.0517     5.7170    20.1600     0.0315     0.2069
   65    1.280   2105.31     0.0478     0.0020     0.0169     0.0128     0.0552     4.4176    20.4800     0.0347     0.1411
   66    1.300   2106.27     0.0488     0.0022     0.0192     0.0130     0.0559     4.3131    20.8000     0.0351     0.1185
   67    1.320   2107.27     0.0408     0.0022     0.0209     0.0132     0.0497     5.4250    21.1200     0.0286     0.2795
   68    1.340   2108.25     0.0412     0.0025     0.0234     0.0134     0.0504     5.9606    21.4400     0.0290     0.2955
   69    1.360   2109.27     0.0435     0.0024     0.0237     0.0136     0.0534     5.3671    21.7600     0.0316     0.3175
   70    1.380   2110.25     0.0436     0.0023     0.0218     0.0138     0.0530     5.3064    22.0800     0.0309     0.2770
   71    1.400   2111.27     0.0444     0.0021     0.0227     0.0140     0.0538     4.6839    22.4000     0.0314     0.2675
   72    1.420   2112.28     0.0471     0.0022     0.0230     0.0142     0.0568     4.5737    22.7200     0.0340     0.2588
   73    1.440   2113.29     0.0450     0.0021     0.0237     0.0144     0.0548     4.6482    23.0400     0.0318     0.2853
   74    1.460   2114.28     0.0467     0.0023     0.0244     0.0146     0.0568     4.8647    23.3600     0.0334     0.2795
   75    1.480   2115.29     0.0457     0.0039     0.0249     0.0148     0.0561     8.6082    23.6800     0.0324     0.3089
   76    1.500   2116.32     0.0472     0.0054     0.0238     0.0150     0.0573    11.3693    24.0000     0.0333     0.2737
   77    1.520   2117.35     0.0470     0.0055     0.0241     0.0152     0.0572    11.6428    24.3200     0.0329     0.2778
   78    1.540   2118.34     0.0492     0.0058     0.0247     0.0154     0.0593    11.8524    24.6400     0.0346     0.2509
   79    1.560   2119.35     0.0622     0.0059     0.0287     0.0156     0.0735    11.5760    24.9600     0.0486     0.2446
   80    1.580   2120.38     0.0791     0.0053     0.0269     0.0158     0.0907     6.6591    25.2800     0.0654     0.1833
   81    1.600   2121.45     0.0795     0.0043     0.0255     0.0160     0.0906     5.6913    25.6000     0.0650     0.1664
   82    1.620   2122.46     0.0758     0.0043     0.0213     0.0162     0.0851     5.7127    25.9200     0.0592     0.1026
   83    1.640   2123.48     0.0717     0.0049     0.0201     0.0164     0.0802     6.5513    26.2400     0.0539     0.0690
   84    1.660   2124.49     0.0681     0.0041     0.0221     0.0166     0.0768     6.0360    26.5600     0.0503     0.0828
   85    1.680   2125.50     0.0599     0.0036     0.0215     0.0168     0.0697     5.9238    26.8800     0.0429     0.1549
   86    1.700   2126.50     0.0562     0.0035     0.0204     0.0170     0.0644     6.2657    27.2000     0.0372     0.0703
   87    1.720   2127.51     0.0587     0.0034     0.0299     0.0172     0.0688     5.7945    27.5200     0.0413     0.1624
   88    1.740   2128.57     0.0711     0.0030     0.0363     0.0174     0.0870     4.2674    27.8400     0.0592     0.3471
   89    1.760   2129.56     0.0660     0.0036     0.0282     0.0176     0.0782     5.4051    28.1600     0.0500     0.2292
   90    1.780   2130.57     0.0694     0.0038     0.0272     0.0178     0.0815     5.5513    28.4800     0.0530     0.2071
   91    1.800   2131.53     0.0657     0.0038     0.0307     0.0180     0.0773     5.8056    28.8000     0.0485     0.1967
   92    1.820   2132.57     0.0672     0.0038     0.0385     0.0182     0.0824     5.7248    29.1200     0.0533     0.3389
   93    1.840   2133.52     0.0729     0.0041     0.0425     0.0184     0.0906     5.7174    29.4400     0.0611     0.3889
   94    1.860   2134.55     0.0754     0.0044     0.0455     0.0186     0.0938     5.8479    29.7600     0.0641     0.3936
   95    1.880   2135.56     0.0745     0.0046     0.0475     0.0188     0.0946     6.2630    30.0800     0.0645     0.4515
   96    1.900   2136.57     0.0728     0.0051     0.0440     0.0190     0.0917     6.9962    30.4000     0.0613     0.4252
   97    1.920   2137.58     0.0683     0.0056     0.0438     0.0192     0.0866     7.8295    30.7200     0.0559     0.4342
   98    1.940   2138.59     0.0712     0.0056     0.0453     0.0194     0.0900     7.7222    31.0400     0.0590     0.4308
   99    1.960   2139.60     0.0730     0.0056     0.0481     0.0196     0.0928     7.6783    31.3600     0.0615     0.4490
  100    1.980   2140.73     0.0781     0.0057     0.0492     0.0198     0.0990     7.6355    31.6800     0.0673     0.4462
  101    2.000   2147.70     0.0794     0.0054     0.0473     0.0200     0.0995     6.9816    32.0000     0.0675     0.4137
  102    2.020   2154.67     0.0807     0.0052     0.0457     0.0202     0.1000     6.5555    32.3200     0.0677     0.3813
  103    2.040   2156.91     0.0819     0.0053     0.0458     0.0204     0.1013     6.4281    32.6400     0.0686     0.3746
  104    2.060   2157.94     0.0786     0.0053     0.0413     0.0206     0.0967     6.6126    32.9600     0.0638     0.3531
  105    2.080   2158.95     0.0770     0.0053     0.0427     0.0208     0.0944     6.7488    33.2800     0.0611     0.3362
  106    2.100   2159.94     0.0821     0.0052     0.0452     0.0210     0.1009     6.4038    33.6000     0.0673     0.3556
  107    2.120   2160.98     0.0785     0.0055     0.0470     0.0212     0.0980     6.9547    33.9200     0.0641     0.3927
  108    2.140   2161.98     0.0751     0.0053     0.0483     0.0214     0.0952     7.0610    34.2400     0.0610     0.4341
  109    2.160   2163.04     0.0736     0.0051     0.0485     0.0216     0.0940     6.9619    34.5600     0.0594     0.4525
  110    2.180   2164.05     0.0702     0.0048     0.0475     0.0218     0.0903     6.8419    34.8800     0.0555     0.4695
  111    2.200   2165.06     0.0726     0.0046     0.0483     0.0220     0.0927     6.2920    35.2000     0.0575     0.4481
  112    2.220   2166.07     0.0676     0.0049     0.0503     0.0222     0.0883     7.3036    35.5200     0.0527     0.5138
  113    2.240   2167.08     0.0700     0.0045     0.0535     0.0224     0.0919     6.4919    35.8400     0.0561     0.5318
  114    2.260   2168.09     0.0749     0.0045     0.0565     0.0226     0.0983     6.0782    36.1600     0.0621     0.5309
  115    2.280   2169.09     0.0759     0.0045     0.0578     0.0228     0.0999     5.9214    36.4800     0.0634     0.5438
  116    2.300   2170.10     0.0780     0.0046     0.0593     0.0230     0.1027     5.8715    36.8000     0.0659     0.5438
  117    2.320   2171.11     0.0765     0.0044     0.0611     0.0232     0.1019     5.7048    37.1200     0.0647     0.5738
  118    2.340   2172.14     0.0775     0.0044     0.0646     0.0234     0.1042     5.6892    37.4400     0.0668     0.6027
  119    2.360   2173.15     0.0825     0.0048     0.0669     0.0236     0.1103     5.8199    37.7600     0.0725     0.5872
  120    2.380   2174.13     0.0808     0.0048     0.0679     0.0238     0.1091     6.0181    38.0800     0.0711     0.6132
  121    2.400   2175.14     0.0847     0.0049     0.0658     0.0240     0.1124     5.7869    38.4000     0.0740     0.5671
  122    2.420   2176.13     0.0878     0.0049     0.0623     0.0242     0.1146     5.6004    38.7200     0.0759     0.5227
  123    2.440   2177.15     0.0811     0.0053     0.0584     0.0244     0.1061     6.5639    39.0400     0.0670     0.5225
  124    2.460   2178.15     0.0840     0.0054     0.0565     0.0246     0.1081     6.4095    39.3600     0.0687     0.4761
  125    2.480   2179.16     0.0849     0.0060     0.0556     0.0248     0.1084     7.2312    39.6800     0.0687     0.4507
  126    2.500   2180.17     0.0809     0.0065     0.0584     0.0250     0.1048     8.0687    40.0000     0.0648     0.4923
  127    2.520   2181.13     0.0827     0.0065     0.0622     0.0252     0.1082     7.9670    40.3200     0.0679     0.5229
  128    2.540   2182.15     0.0865     0.0064     0.0623     0.0254     0.1133     7.3714    40.6400     0.0726     0.5261
  129    2.560   2183.20     0.0854     0.0062     0.0615     0.0256     0.1112     7.2368    40.9600     0.0702     0.5096
  130    2.580   2199.79     0.0847     0.0065     0.0595     0.0258     0.1100     7.5107    41.2800     0.0688     0.5011
  131    2.600   2228.54     0.0818     0.0061     0.0572     0.0260     0.1061     7.0300    41.6000     0.0645     0.4950
  132    2.620   2249.41     0.0771     0.0058     0.0514     0.0262     0.0999     7.4814    41.9200     0.0580     0.4865
  133    2.640   2250.52     0.0740     0.0055     0.0477     0.0264     0.0940     7.4214    42.2400     0.0518     0.4104
  134    2.660   2251.55     0.0714     0.0055     0.0503     0.0266     0.0921     7.6556    42.5600     0.0496     0.4572
