

 Program UNIPLOT                         version 05.36.02
 _______________
 (c) Fugro Netherlands Marine, Nootdorp, The Netherlands


 ASCII representation of data plotted on a graph.

 This ASCII file presents data interpolated to values per fixed depth interval.
 The data are corrected for the depth-offset differences between the various 
 transducers in the penetrometer.

 The records at the start of penetration may include no values or anomalous
 values where a depth offset implies incomplete penetration of a particular
 sensor into the ground.

 The records at the end of penetration may include no values for data channels
 where the transducer did not reach this depth.

 The reference level for test values is (1) the ground surface for onshore tests and (2) the seafloor for nearshore and offshore tests.

 UNICAS data file          : CPT-2025.000                            
 Output using command file : PlotASCII.cmd

 ASCII file created at : date          :10-Dec-2021
                         time          :15:00:24
 Project number                        :20024805
 Date of testing                       :09-Dec-2021
 Location                              :Hong Kong Offshore Wind Farm Project
 Test name                             :CPT-2025
 Penetrometer                          :F7.5CKE2HAW2/B/3284
 Serial no                             :1701-3284

 Table description:
 Column ID                             :Parameter name
 ___________________________________________________________________________________
 Rec                                   :Record ID, Record ID [-]
 Depth                                 :Depth, Depth [m]
 Time                                  :Time, Time [s]
 Cone                                  :Cone Resistance, Cone Resistance [MPa]
 Friction                              :Sleeve Friction, Sleeve Friction [MPa]
 Pore 2                                :Porewater Pressure, Porewater Pressure at Shoulder [MPa]
 HydroPress                            :Hydrostatic Pressure, Hydrostatic Pressure [MPa]
 qt                                    :Total Cone Resistance, Total Cone Resistance [MPa]
 Fric_ratio                            :Friction Ratio, Friction Ratio [%]
 SigmaVert                             :Vertical stress, Vertical stress [kPa] as specified in ground model
 Qnet                                  :Net Cone Resistance, Net Cone Resistance [MPa], unit weight as specified in ground model
 Bq                                    :Porewater Pressure Ratio, Porewater Pressure Ratio [-], unit weight as specified in ground model


 Data table:
  Rec    Depth      Time       Cone   Friction     Pore 2 HydroPress         qt Fric_ratio  SigmaVert       Qnet         Bq
   No        m         s        MPa        MPa        MPa        MPa        MPa          %        kPa        MPa          -
    1    0.000   1494.63     0.0000                           0.0000     0.0000                0.0000     0.0000           
    2    0.020   1495.58     0.0018                0.0009     0.0002     0.0021                0.3200     0.0018     0.2969
    3    0.040   1496.55     0.0086                0.0026     0.0004     0.0095                0.6400     0.0089     0.2078
    4    0.060   1497.48     0.0099     0.0004     0.0037     0.0006     0.0113     4.9258     0.9600     0.0103     0.2615
    5    0.080   1498.44     0.0162     0.0000     0.0048     0.0008     0.0181     0.0642     1.2800     0.0168     0.2243
    6    0.100   1499.38     0.0198     0.0009     0.0055     0.0010     0.0220     4.2951     1.6000     0.0204     0.2124
    7    0.120   1500.34     0.0186     0.0004     0.0053     0.0012     0.0208     2.2442     1.9200     0.0189     0.2216
    8    0.140   1501.32     0.0180     0.0011     0.0049     0.0014     0.0201     5.7921     2.2400     0.0178     0.1933
    9    0.160   1502.23     0.0213     0.0014     0.0054     0.0016     0.0236     7.3113     2.5600     0.0210     0.1841
   10    0.180   1503.18     0.0290     0.0016     0.0035     0.0018     0.0309     6.1766     2.8800     0.0280     0.0967
   11    0.200   1504.18     0.0459     0.0022     0.0016     0.0020     0.0471     5.1843     3.2000     0.0439     0.0156
   12    0.220   1505.16     0.0544     0.0022    -0.0022     0.0022     0.0543     4.2138     3.5200     0.0508    -0.0485
   13    0.240   1506.11     0.0633     0.0029    -0.0032     0.0024     0.0618     4.7350     3.8400     0.0579    -0.1064
   14    0.260   1507.05     0.0722     0.0029     0.0011     0.0026     0.0715     4.2035     4.1600     0.0674    -0.0631
   15    0.280   1508.01     0.0879     0.0039    -0.0048     0.0028     0.0867     4.3591     4.4800     0.0822    -0.0722
   16    0.300   1508.98     0.0823     0.0046    -0.0080     0.0030     0.0800     5.6071     4.8000     0.0752    -0.1099
   17    0.320   1509.94     0.0800     0.0047    -0.0103     0.0032     0.0752     5.2297     5.1200     0.0701    -0.2101
   18    0.340   1510.90     0.0658     0.0049    -0.0073     0.0034     0.0625     7.1047     5.4400     0.0571    -0.1973
   19    0.360   1511.85     0.0618     0.0050    -0.0067     0.0036     0.0591     7.9553     5.7600     0.0534    -0.1892
   20    0.380   1512.80     0.0562     0.0051    -0.0096     0.0038     0.0529     8.6839     6.0800     0.0468    -0.2522
   21    0.400   1513.76     0.0516     0.0048    -0.0016     0.0040     0.0499     9.0811     6.4000     0.0435    -0.1827
   22    0.420   1514.70     0.0490     0.0050     0.0023     0.0042     0.0495     9.9606     6.7200     0.0428    -0.0713
   23    0.440   1515.65     0.0518     0.0043     0.0025     0.0044     0.0531     8.2960     7.0400     0.0461    -0.0240
   24    0.460   1516.60     0.0548     0.0039    -0.0013     0.0046     0.0548     7.4220     7.3600     0.0475    -0.0962
   25    0.480   1517.59     0.0509     0.0039    -0.0020     0.0048     0.0498     7.6884     7.6800     0.0421    -0.1744
   26    0.500   1518.54     0.0477     0.0038     0.0011     0.0050     0.0476     7.8926     8.0000     0.0396    -0.1319
   27    0.520   1519.49     0.0434     0.0032     0.0050     0.0052     0.0450     7.1265     8.3200     0.0367    -0.0385
   28    0.540   1520.44     0.0427     0.0032     0.0068     0.0054     0.0455     8.1202     8.6400     0.0369     0.0313
   29    0.560   1521.39     0.0448     0.0025     0.0083     0.0056     0.0478     5.6014     8.9600     0.0388     0.0411
   30    0.580   1522.35     0.0440     0.0022     0.0112     0.0058     0.0484     4.7635     9.2800     0.0391     0.1159
   31    0.600   1523.33     0.0604     0.0021     0.0130     0.0060     0.0655     4.0263     9.6000     0.0559     0.1122
   32    0.620   1524.28     0.1346     0.0023     0.0130     0.0062     0.1404     2.1348     9.9200     0.1305     0.0609
   33    0.640   1525.23     0.2260     0.0021     0.0124     0.0064     0.2318     0.9864    10.2400     0.2216     0.0329
   34    0.660   1526.19     0.1991     0.0021     0.0054     0.0066     0.2021     0.9936    10.5600     0.1915     0.0022
   35    0.680   1540.02     0.1685     0.0026     0.0076     0.0068     0.1713     1.4390    10.8800     0.1604     0.0010
   36    0.700   1563.79     0.1456     0.0031     0.0106     0.0070     0.1496     1.6917    11.2000     0.1384     0.0206
   37    0.720   1574.70     0.1187     0.0031     0.0129     0.0072     0.1238     2.3830    11.5200     0.1123     0.0446
   38    0.740   1575.66     0.0971     0.0029     0.0151     0.0074     0.1031     2.7980    11.8400     0.0913     0.0768
   39    0.760   1576.61     0.0897     0.0032     0.0163     0.0076     0.0966     3.4691    12.1600     0.0844     0.1041
   40    0.780   1577.56     0.0838     0.0033     0.0163     0.0078     0.0905     3.7874    12.4800     0.0781     0.1069
   41    0.800   1578.52     0.0777     0.0023     0.0164     0.0080     0.0845     2.8928    12.8000     0.0717     0.1156
   42    0.820   1579.47     0.0770     0.0018     0.0183     0.0082     0.0843     2.4261    13.1200     0.0712     0.1294
   43    0.840   1580.46     0.0928     0.0012     0.0221     0.0084     0.1016     1.3590    13.4400     0.0881     0.1413
   44    0.860   1581.36     0.0900     0.0018     0.0226     0.0086     0.0997     1.9951    13.7600     0.0860     0.1679
   45    0.880   1582.31     0.0878     0.0015     0.0173     0.0088     0.0956     1.6835    14.0800     0.0815     0.1179
   46    0.900   1583.26     0.0869     0.0012     0.0154     0.0090     0.0935     1.4355    14.4000     0.0791     0.0839
   47    0.920   1584.26     0.0808     0.0006     0.0176     0.0092     0.0878     0.7530    14.7200     0.0731     0.1032
   48    0.940   1585.20     0.0975     0.0010     0.0200     0.0094     0.1056     1.0976    15.0400     0.0906     0.1105
   49    0.960   1586.15     0.1358     0.0007     0.0200     0.0096     0.1438     0.5501    15.3600     0.1284     0.0739
   50    0.980   1587.10     0.1273     0.0014     0.0197     0.0098     0.1354     0.9841    15.6800     0.1197     0.0784
   51    1.000   1588.05     0.1022     0.0008     0.0214     0.0100     0.1110     0.6943    16.0000     0.0950     0.1161
   52    1.020   1589.03     0.0914     0.0011     0.0230     0.0102     0.1009     1.1204    16.3200     0.0845     0.1456
   53    1.040   1589.99     0.0812     0.0010     0.0243     0.0104     0.0912     1.0786    16.6400     0.0745     0.1810
   54    1.060   1590.93     0.0774     0.0013     0.0253     0.0106     0.0879     1.6559    16.9600     0.0709     0.2024
   55    1.080   1591.89     0.0672     0.0010     0.0274     0.0108     0.0784     1.3568    17.2800     0.0611     0.2594
   56    1.100   1592.84     0.0669     0.0013     0.0300     0.0110     0.0792     1.9264    17.6000     0.0616     0.2955
   57    1.120   1593.79     0.0726     0.0013     0.0315     0.0112     0.0856     1.8354    17.9200     0.0677     0.2921
   58    1.140   1594.70     0.0793     0.0006     0.0323     0.0114     0.0929     0.8525    18.2400     0.0747     0.2820
   59    1.160   1595.68     0.0826     0.0003     0.0302     0.0116     0.0957     0.3107    18.5600     0.0771     0.2527
   60    1.180   1596.63     0.0809     0.0005     0.0306     0.0118     0.0933     0.6374    18.8800     0.0745     0.2387
   61    1.200   1597.59     0.0818     0.0012     0.0352     0.0120     0.0962     1.4933    19.2000     0.0770     0.2883
   62    1.220   1598.54     0.1091     0.0010     0.0361     0.0122     0.1238     1.1772    19.5200     0.1043     0.2251
   63    1.240   1599.48     0.3594     0.0011     0.0381     0.0124     0.3759     0.4656    19.8400     0.3561     0.0806
   64    1.260   1600.43     0.7572     0.0016     0.0180     0.0126     0.7682     0.2516    20.1600     0.7481     0.0197
   65    1.280   1601.40     0.9420     0.0035     0.0092     0.0128     0.9459     0.3819    20.4800     0.9255    -0.0036
   66    1.300   1602.39     0.9401     0.0070     0.0124     0.0130     0.9449     0.7336    20.8000     0.9241    -0.0019
   67    1.320   1603.37     0.9028     0.0076     0.0156     0.0132     0.9090     0.8279    21.1200     0.8879     0.0017
   68    1.340   1604.32     0.8710     0.0046     0.0171     0.0134     0.8781     0.5187    21.4400     0.8566     0.0039
   69    1.360   1605.25     0.9042     0.0062     0.0179     0.0136     0.9115     0.7068    21.7600     0.8897     0.0043
   70    1.380   1606.20     0.9746     0.0063     0.0179     0.0138     0.9821     0.6759    22.0800     0.9600     0.0041
   71    1.400   1607.15     0.9762     0.0077     0.0167     0.0140     0.9833     0.8015    22.4000     0.9609     0.0030
   72    1.420   1608.11     0.9658     0.0133     0.0166     0.0142     0.9726     1.3541    22.7200     0.9499     0.0022
   73    1.440   1609.09     0.8853     0.0146     0.0176     0.0144     0.8925     1.5869    23.0400     0.8694     0.0032
   74    1.460   1610.01     0.7228     0.0134     0.0164     0.0146     0.7297     1.7105    23.3600     0.7064     0.0028
   75    1.480   1610.94     0.5960     0.0115     0.0169     0.0148     0.6030     1.7922    23.6800     0.5793     0.0031
   76    1.500   1611.93     0.4107     0.0085     0.0163     0.0150     0.4177     1.7662    24.0000     0.3937     0.0043
   77    1.520   1612.87     0.2706     0.0076     0.0180     0.0152     0.2779     2.5287    24.3200     0.2536     0.0086
   78    1.540   1613.82     0.2691     0.0045     0.0204     0.0154     0.2774     1.8401    24.6400     0.2528     0.0175
   79    1.560   1614.77     0.4361     0.0069     0.0289     0.0156     0.4467     1.8317    24.9600     0.4218     0.0228
   80    1.580   1615.72     0.6530     0.0050     0.0300     0.0158     0.6658     0.8612    25.2800     0.6405     0.0227
   81    1.600   1616.67     0.7477     0.0056     0.0160     0.0160     0.7549     0.7649    25.6000     0.7293     0.0017
   82    1.620   1617.67     0.7327     0.0081     0.0120     0.0162     0.7380     1.0873    25.9200     0.7121    -0.0052
   83    1.640   1618.63     0.6540     0.0082     0.0124     0.0164     0.6589     1.1954    26.2400     0.6327    -0.0073
   84    1.660   1619.58     0.4885     0.0069     0.0159     0.0166     0.4959     1.2733    26.5600     0.4693     0.0022
   85    1.680   1620.53     0.3154     0.0065     0.0204     0.0168     0.3234     1.9482    26.8800     0.2965     0.0078
   86    1.700   1621.49     0.2712     0.0070     0.0258     0.0170     0.2815     2.3864    27.2000     0.2543     0.0294
   87    1.720   1622.44     0.2376     0.0081     0.0273     0.0172     0.2486     3.3767    27.5200     0.2210     0.0408
   88    1.740   1623.42     0.2701     0.0057     0.0345     0.0174     0.2832     2.2505    27.8400     0.2554     0.0543
   89    1.760   1624.39     0.3516     0.0043     0.0367     0.0176     0.3683     1.3758    28.1600     0.3401     0.0649
   90    1.780   1625.38     0.3644     0.0036     0.0145     0.0178     0.3715     0.9548    28.4800     0.3430    -0.0033
   91    1.800   1626.30     0.3362     0.0028     0.0173     0.0180     0.3432     0.8051    28.8000     0.3144    -0.0041
   92    1.820   1627.23     0.3180     0.0030     0.0365     0.0182     0.3298     0.9458    29.1200     0.3007     0.0319
   93    1.840   1628.18     0.4537     0.0040     0.0372     0.0184     0.4698     1.0367    29.4400     0.4404     0.0459
   94    1.860   1629.17     0.6267     0.0061     0.0332     0.0186     0.6415     1.0476    29.7600     0.6117     0.0271
   95    1.880   1630.13     0.6562     0.0079     0.0264     0.0188     0.6684     1.1930    30.0800     0.6383     0.0161
   96    1.900   1631.10     0.5676     0.0077     0.0203     0.0190     0.5771     1.2634    30.4000     0.5467     0.0068
   97    1.920   1632.05     0.4303     0.0070     0.0189     0.0192     0.4379     1.4720    30.7200     0.4072    -0.0024
   98    1.940   1632.98     0.3586     0.0072     0.0240     0.0194     0.3678     1.9058    31.0400     0.3367     0.0077
   99    1.960   1633.95     0.3162     0.0087     0.0311     0.0196     0.3283     2.6692    31.3600     0.2969     0.0308
  100    1.980   1634.90     0.3149     0.0099     0.0347     0.0198     0.3288     3.2522    31.6800     0.2972     0.0455
  101    2.000   1635.85     0.3422     0.0096     0.0419     0.0200     0.3592     2.8908    32.0000     0.3272     0.0628
  102    2.020   1636.80     0.3328     0.0088     0.0326     0.0202     0.3482     2.5818    32.3200     0.3158     0.0517
  103    2.040   1637.74     0.3048     0.0073     0.0323     0.0204     0.3175     2.3350    32.6400     0.2849     0.0350
  104    2.060   1638.70     0.2739     0.0051     0.0325     0.0206     0.2875     1.7954    32.9600     0.2546     0.0464
  105    2.080   1639.65     0.2232     0.0051     0.0403     0.0208     0.2389     2.1591    33.2800     0.2056     0.0808
  106    2.100   1640.59     0.1971     0.0062     0.0523     0.0210     0.2179     3.0161    33.6000     0.1843     0.1542
  107    2.120   1641.59     0.3350     0.0063     0.0638     0.0212     0.3607     2.6266    33.9200     0.3268     0.1229
  108    2.140   1642.54     0.9441     0.0051     0.0312     0.0214     0.9706     0.8361    34.2400     0.9364     0.0462
  109    2.160   1643.51     1.7472     0.0044    -0.0154     0.0216     1.7437     0.2986    34.5600     1.7091    -0.0173
  110    2.180   1644.48     2.3683     0.0041    -0.0288     0.0218     2.3577     0.1888    34.8800     2.3228    -0.0202
  111    2.200   1645.39     2.5300     0.0046    -0.0311     0.0220     2.5169     0.1823    35.2000     2.4817    -0.0214
  112    2.220   1646.35     2.4600     0.0042    -0.0287     0.0222     2.4474     0.1677    35.5200     2.4118    -0.0216
  113    2.240   1647.31     2.2573     0.0035    -0.0174     0.0224     2.2480     0.1516    35.8400     2.2122    -0.0201
  114    2.260   1648.26     2.0527     0.0031    -0.0046     0.0226     2.0487     0.1483    36.1600     2.0125    -0.0159
  115    2.280   1649.22     1.8812     0.0028     0.0042     0.0228     1.8816     0.1425    36.4800     1.8451    -0.0119
  116    2.300   1650.20     1.7400     0.0026     0.0134     0.0230     1.7444     0.1485    36.8000     1.7076    -0.0073
  117    2.320   1651.15     1.6393     0.0031     0.0199     0.0232     1.6468     0.1828    37.1200     1.6097    -0.0033
  118    2.340   1652.08     1.5669     0.0029     0.0272     0.0234     1.5770     0.1822    37.4400     1.5395     0.0004
  119    2.360   1653.05     1.5618     0.0032     0.0369     0.0236     1.5759     0.2078    37.7600     1.5382     0.0065
  120    2.380   1654.01     1.6544     0.0038     0.0448     0.0238     1.6723     0.2342    38.0800     1.6343     0.0115
  121    2.400   1654.96     1.8111     0.0044     0.0504     0.0240     1.8315     0.2552    38.4000     1.7931     0.0136
  122    2.420   1655.91     2.1418     0.0050     0.0519     0.0242     2.1639     0.2500    38.7200     2.1252     0.0135
  123    2.440   1656.90     2.6043     0.0058     0.0364     0.0244     2.6219     0.2391    39.0400     2.5829     0.0069
  124    2.460   1657.87     2.9602     0.0062     0.0265     0.0246     2.9724     0.2160    39.3600     2.9330     0.0015
  125    2.480   1658.82     3.0788     0.0079     0.0226     0.0248     3.0890     0.2578    39.6800     3.0493    -0.0002
  126    2.500   1659.77     3.0492     0.0102     0.0179     0.0250     3.0573     0.3308    40.0000     3.0173    -0.0019
  127    2.520   1660.72     2.8796     0.0125     0.0207     0.0252     2.8878     0.4429    40.3200     2.8475    -0.0019
  128    2.540   1661.67     2.6138     0.0152     0.0258     0.0254     2.6238     0.6298    40.6400     2.5832    -0.0006
  129    2.560   1662.63     2.2816     0.0180     0.0326     0.0256     2.2944     0.8166    40.9600     2.2534     0.0022
  130    2.580   1663.58     1.9867     0.0199     0.0396     0.0258     2.0022     0.9948    41.2800     1.9609     0.0057
  131    2.600   1664.57     1.7653     0.0185     0.0476     0.0260     1.7842     1.0407    41.6000     1.7426     0.0110
  132    2.620   1665.52     1.6576     0.0152     0.0537     0.0262     1.6800     0.9018    41.9200     1.6381     0.0166
  133    2.640   1681.80     1.9069     0.0117     0.0502     0.0264     1.9285     0.7084    42.2400     1.8863     0.0142
  134    2.660   1699.73     2.1921     0.0115     0.0468     0.0266     2.2123     0.6963    42.5600     2.1697     0.0107
  135    2.680   1717.63     2.4781     0.0134     0.0434     0.0268     2.4968     0.6726    42.8800     2.4540     0.0072
  136    2.700   1718.61     3.0685     0.0156     0.0158     0.0270     3.0807     0.5376    43.2000     3.0375     0.0007
