

 Program UNIPLOT                         version 05.36.02
 _______________
 (c) Fugro Netherlands Marine, Nootdorp, The Netherlands


 ASCII representation of data plotted on a graph.

 This ASCII file presents data interpolated to values per fixed depth interval.
 The data are corrected for the depth-offset differences between the various 
 transducers in the penetrometer.

 The records at the start of penetration may include no values or anomalous
 values where a depth offset implies incomplete penetration of a particular
 sensor into the ground.

 The records at the end of penetration may include no values for data channels
 where the transducer did not reach this depth.

 The reference level for test values is (1) the ground surface for onshore tests and (2) the seafloor for nearshore and offshore tests.

 UNICAS data file          : CPT-2032.002                            
 Output using command file : PlotASCII.cmd

 ASCII file created at : date          :16-Dec-2021
                         time          :13:37:34
 Project number                        :20024805
 Date of testing                       :15-Dec-2021
 Location                              :Hong Kong Offshore Wind Farm Project
 Test name                             :CPT-2032
 Penetrometer                          :F7.5CKE2HAW2/B/3284
 Serial no                             :1701-3284

 Table description:
 Column ID                             :Parameter name
 ___________________________________________________________________________________
 Rec                                   :Record ID, Record ID [-]
 Depth                                 :Depth, Depth [m]
 Time                                  :Time, Time [s]
 Cone                                  :Cone Resistance, Cone Resistance [MPa]
 Friction                              :Sleeve Friction, Sleeve Friction [MPa]
 Pore 2                                :Porewater Pressure, Porewater Pressure at Shoulder [MPa]
 HydroPress                            :Hydrostatic Pressure, Hydrostatic Pressure [MPa]
 qt                                    :Total Cone Resistance, Total Cone Resistance [MPa]
 Fric_ratio                            :Friction Ratio, Friction Ratio [%]
 SigmaVert                             :Vertical stress, Vertical stress [kPa] as specified in ground model
 Qnet                                  :Net Cone Resistance, Net Cone Resistance [MPa], unit weight as specified in ground model
 Bq                                    :Porewater Pressure Ratio, Porewater Pressure Ratio [-], unit weight as specified in ground model


 Data table:
  Rec    Depth      Time       Cone   Friction     Pore 2 HydroPress         qt Fric_ratio  SigmaVert       Qnet         Bq
   No        m         s        MPa        MPa        MPa        MPa        MPa          %        kPa        MPa          -
    1    0.000    314.75     0.0000                           0.0000     0.0000                0.0000     0.0000           
    2    0.020    315.74     0.0057                0.0012     0.0002     0.0061                0.3200     0.0058     0.1546
    3    0.040    316.68     0.0068                0.0014     0.0004     0.0074                0.6400     0.0067     0.1440
    4    0.060    317.62     0.0065     0.0012     0.0017     0.0006     0.0071    44.1628     0.9600     0.0062     0.2016
    5    0.080    318.58     0.0073     0.0015     0.0019     0.0008     0.0080    19.0027     1.2800     0.0068     0.1588
    6    0.100    319.54     0.0085     0.0011     0.0024     0.0010     0.0095    14.2313     1.6000     0.0079     0.1516
    7    0.120    320.53     0.0099     0.0010     0.0025     0.0012     0.0109     9.0923     1.9200     0.0090     0.1497
    8    0.140    532.29     0.0103     0.0012     0.0021     0.0014     0.0113    14.4160     2.2400     0.0090     0.1016
    9    0.160    633.91     0.0138     0.0008     0.0007     0.0016     0.0143     6.2212     2.5600     0.0118    -0.0257
   10    0.180    634.88     0.0149     0.0010     0.0005     0.0018     0.0152     7.3135     2.8800     0.0123    -0.0981
   11    0.200    635.85     0.0137     0.0010     0.0024     0.0020     0.0145     8.1358     3.2000     0.0113    -0.0185
   12    0.220    636.84     0.0105     0.0009     0.0037     0.0022     0.0118     7.5023     3.5200     0.0083     0.0951
   13    0.240    637.77     0.0147     0.0008     0.0042     0.0024     0.0163     5.3794     3.8400     0.0124     0.1094
   14    0.260    638.74     0.0142     0.0005     0.0047     0.0026     0.0161     3.9980     4.1600     0.0119     0.1552
   15    0.280    639.71     0.0134     0.0003     0.0054     0.0028     0.0155     1.9435     4.4800     0.0110     0.1911
   16    0.300    640.67     0.0128     0.0004     0.0057     0.0030     0.0151     2.4199     4.8000     0.0103     0.2528
   17    0.320    641.64     0.0135     0.0002     0.0063     0.0032     0.0161     1.2171     5.1200     0.0110     0.2733
   18    0.340    642.60     0.0143     0.0002     0.0058     0.0034     0.0170     1.6130     5.4400     0.0116     0.2642
   19    0.360    643.53     0.0135     0.0003     0.0067     0.0036     0.0160     1.9842     5.7600     0.0102     0.2254
   20    0.380    644.49     0.0150     0.0010     0.0074     0.0038     0.0179     6.5233     6.0800     0.0118     0.2599
   21    0.400    645.45     0.0144     0.0007     0.0080     0.0040     0.0177     4.3506     6.4000     0.0113     0.3413
   22    0.420    646.42     0.0166     0.0008     0.0093     0.0042     0.0203     4.9187     6.7200     0.0136     0.3478
   23    0.440    668.40     0.0160     0.0011     0.0100     0.0044     0.0202     6.8142     7.0400     0.0131     0.4146
   24    0.460    820.39     0.0166     0.0009     0.0103     0.0046     0.0209     5.4197     7.3600     0.0135     0.4149
   25    0.480    927.59     0.0184     0.0009     0.0087     0.0048     0.0224     5.1460     7.6800     0.0147     0.3236
   26    0.500    928.59     0.0226     0.0012     0.0086     0.0050     0.0260     6.2568     8.0000     0.0180     0.1772
   27    0.520    929.54     0.0210     0.0008     0.0108     0.0052     0.0252     3.7379     8.3200     0.0169     0.2952
   28    0.540    930.50     0.0227     0.0006     0.0127     0.0054     0.0278     2.3698     8.6400     0.0191     0.3591
   29    0.560    931.48     0.0203     0.0007     0.0145     0.0056     0.0262     3.4203     8.9600     0.0172     0.4895
   30    0.580    932.41     0.0242     0.0007     0.0155     0.0058     0.0305     3.1061     9.2800     0.0212     0.4382
   31    0.600    933.37     0.0217     0.0005     0.0167     0.0060     0.0284     2.2184     9.6000     0.0188     0.5310
   32    0.620    934.35     0.0245     0.0004     0.0166     0.0062     0.0312     1.6245     9.9200     0.0213     0.4623
   33    0.640    935.31     0.0261     0.0002     0.0175     0.0064     0.0333     0.7239    10.2400     0.0231     0.4688
   34    0.660    936.28     0.0206     0.0005     0.0178     0.0066     0.0280     1.8724    10.5600     0.0175     0.6411
   35    0.680    937.24     0.0228     0.0007     0.0167     0.0068     0.0299     2.8634    10.8800     0.0191     0.5323
   36    0.700    938.20     0.0244     0.0011     0.0160     0.0070     0.0311     4.6567    11.2000     0.0199     0.4536
   37    0.720    939.15     0.0234     0.0010     0.0166     0.0072     0.0301     4.2334    11.5200     0.0185     0.4723
   38    0.740    940.11     0.0266     0.0010     0.0185     0.0074     0.0341     3.5873    11.8400     0.0222     0.4729
   39    0.760    941.07     0.0200     0.0011     0.0200     0.0076     0.0282     5.5006    12.1600     0.0161     0.7637
   40    0.780    942.02     0.0220     0.0010     0.0205     0.0078     0.0307     5.4425    12.4800     0.0182     0.7140
   41    0.800   1160.98     0.0208     0.0009     0.0184     0.0080     0.0286     3.7709    12.8000     0.0158     0.6597
   42    0.820   1162.18     0.0317     0.0007     0.0158     0.0082     0.0389     3.2245    13.1200     0.0258     0.3644
   43    0.840   1163.18     0.0337     0.0003     0.0175     0.0084     0.0404     0.8265    13.4400     0.0270     0.2815
   44    0.860   1164.12     0.0276     0.0003     0.0212     0.0086     0.0361     1.0262    13.7600     0.0223     0.5249
   45    0.880   1165.09     0.0293     0.0006     0.0235     0.0088     0.0389     1.7553    14.0800     0.0248     0.5704
   46    0.900   1166.05     0.0291     0.0006     0.0238     0.0090     0.0392     2.1168    14.4000     0.0248     0.6079
   47    0.920   1166.99     0.0309     0.0009     0.0214     0.0092     0.0404     3.0821    14.7200     0.0257     0.5284
   48    0.940   1167.97     0.0293     0.0012     0.0209     0.0094     0.0382     3.7907    15.0400     0.0231     0.5036
   49    0.960   1168.88     0.0274     0.0007     0.0223     0.0096     0.0366     2.7483    15.3600     0.0212     0.5787
   50    0.980   1169.85     0.0300     0.0008     0.0234     0.0098     0.0396     2.5294    15.6800     0.0239     0.5564
   51    1.000   1268.40     0.0249     0.0006     0.0247     0.0100     0.0351     2.2465    16.0000     0.0191     0.7499
   52    1.020   1445.29     0.0234     0.0006     0.0258     0.0102     0.0341     2.5395    16.3200     0.0178     0.8649
   53    1.040   1470.91     0.0270     0.0006     0.0266     0.0104     0.0379     2.1679    16.6400     0.0212     0.7246
   54    1.060   1471.87     0.0356     0.0004     0.0274     0.0106     0.0467     1.3447    16.9600     0.0297     0.5343
   55    1.080   1472.85     0.0365     0.0006     0.0295     0.0108     0.0486     1.6462    17.2800     0.0313     0.5776
   56    1.100   1473.84     0.0355     0.0007     0.0302     0.0110     0.0481     2.1196    17.6000     0.0305     0.6224
   57    1.120   1474.78     0.0362     0.0003     0.0326     0.0112     0.0495     0.6293    17.9200     0.0316     0.6475
   58    1.140   1475.72     0.0475     0.0009     0.0350     0.0114     0.0619     1.8575    18.2400     0.0437     0.5247
   59    1.160   1476.71     0.0465     0.0010     0.0375     0.0116     0.0619     2.2124    18.5600     0.0434     0.5826
   60    1.180   1477.68     0.0515     0.0007     0.0369     0.0118     0.0673     1.3440    18.8800     0.0484     0.5309
   61    1.200   1478.60     0.0544     0.0006     0.0361     0.0120     0.0697     1.2019    19.2000     0.0505     0.4814
   62    1.220   1479.59     0.0577     0.0010     0.0355     0.0122     0.0725     1.8264    19.5200     0.0530     0.4382
   63    1.240   1771.73     0.0560     0.0016     0.0371     0.0124     0.0713     2.7595    19.8400     0.0515     0.4714
   64    1.260   2004.35     0.0496     0.0013     0.0352     0.0126     0.0654     2.5842    20.1600     0.0452     0.5531
   65    1.280   2005.30     0.0884     0.0012     0.0258     0.0128     0.1001     1.4646    20.4800     0.0796     0.1900
   66    1.300   2006.25     0.0893     0.0013     0.0290     0.0130     0.1007     1.4792    20.8000     0.0799     0.1782
   67    1.320   2007.26     0.0869     0.0013     0.0318     0.0132     0.0998     1.4440    21.1200     0.0787     0.2241
   68    1.340   2008.22     0.0836     0.0008     0.0354     0.0134     0.0979     0.9405    21.4400     0.0764     0.2699
   69    1.360   2009.15     0.0790     0.0007     0.0395     0.0136     0.0950     0.9107    21.7600     0.0732     0.3345
   70    1.380   2010.12     0.0855     0.0006     0.0439     0.0138     0.1032     0.6758    22.0800     0.0812     0.3498
   71    1.400   2011.06     0.0864     0.0007     0.0489     0.0140     0.1062     0.8522    22.4000     0.0838     0.3958
   72    1.420   2012.01     0.0929     0.0005     0.0539     0.0142     0.1149     0.5270    22.7200     0.0922     0.4149
   73    1.440   2013.64     0.0882     0.0005     0.0605     0.0144     0.1131     0.4558    23.0400     0.0901     0.5052
   74    1.460   2014.64     0.1124     0.0006     0.0650     0.0146     0.1390     0.5272    23.3600     0.1156     0.4220
   75    1.480   2015.60     0.1247     0.0004     0.0678     0.0148     0.1529     0.3473    23.6800     0.1292     0.4058
   76    1.500   2016.55     0.1303     0.0002     0.0668     0.0150     0.1587     0.1675    24.0000     0.1347     0.3915
   77    1.520   2017.52     0.1369     0.0006     0.0597     0.0152     0.1626     0.4400    24.3200     0.1383     0.3334
   78    1.540   2018.48     0.1482     0.0003     0.0567     0.0154     0.1715     0.2136    24.6400     0.1469     0.2727
   79    1.560   2019.51     0.1561     0.0006     0.0569     0.0156     0.1801     0.3848    24.9600     0.1551     0.2678
   80    1.580   2028.94     0.1630     0.0008     0.0542     0.0158     0.1862     0.5424    25.2800     0.1609     0.2462
   81    1.600   2039.97     0.1711     0.0008     0.0515     0.0160     0.1931     0.4820    25.6000     0.1675     0.2191
   82    1.620   2048.64     0.1782     0.0008     0.0587     0.0162     0.1992     0.4895    25.9200     0.1732     0.1939
   83    1.640   2050.61     0.1612     0.0017     0.0493     0.0164     0.1837     1.2878    26.2400     0.1574     0.2426
   84    1.660   2051.57     0.1794     0.0025     0.0485     0.0166     0.1999     1.4001    26.5600     0.1733     0.1864
   85    1.680   2052.53     0.1808     0.0024     0.0486     0.0168     0.2012     1.3497    26.8800     0.1743     0.1810
   86    1.700   2053.48     0.1841     0.0030     0.0475     0.0170     0.2043     1.6721    27.2000     0.1771     0.1759
   87    1.720   2054.49     0.1873     0.0037     0.0456     0.0172     0.2066     1.9768    27.5200     0.1791     0.1596
   88    1.740   2055.44     0.1929     0.0041     0.0456     0.0174     0.2118     2.1773    27.8400     0.1840     0.1507
   89    1.760   2056.40     0.1979     0.0035     0.0436     0.0176     0.2168     1.7741    28.1600     0.1886     0.1449
   90    1.780   2057.35     0.2012     0.0036     0.0446     0.0178     0.2194     1.7953    28.4800     0.1909     0.1341
   91    1.800   2058.31     0.1978     0.0031     0.0453     0.0180     0.2154     1.5483    28.8000     0.1866     0.1288
   92    1.820   2059.25     0.1803     0.0030     0.0491     0.0182     0.1999     1.6348    29.1200     0.1708     0.1666
   93    1.840   2060.21     0.1644     0.0031     0.0589     0.0184     0.1877     1.9387    29.4400     0.1583     0.2353
   94    1.860   2061.16     0.1586     0.0011     0.0680     0.0186     0.1858     0.6729    29.7600     0.1561     0.2970
   95    1.880   2062.12     0.1579     0.0069     0.0756     0.0188     0.1887     4.4032    30.0800     0.1586     0.3434
   96    1.900   2063.07     0.1612     0.0083     0.0788     0.0190     0.1940     5.1786    30.4000     0.1636     0.3619
   97    1.920   2064.01     0.1743     0.0091     0.0819     0.0192     0.2075     5.4566    30.7200     0.1768     0.3393
   98    1.940   2064.96     0.2198     0.0094     0.0848     0.0194     0.2550     5.0310    31.0400     0.2239     0.2913
   99    1.960   2065.93     0.3441     0.0093     0.0780     0.0196     0.3790     3.4072    31.3600     0.3477     0.1869
  100    1.980   2077.40     0.3224     0.0090     0.0267     0.0198     0.3413     2.0726    31.6800     0.3096     0.0494
  101    2.000   2088.65     0.2300     0.0081    -0.0072     0.0200     0.2370     3.6684    32.0000     0.2050    -0.0164
  102    2.020   2089.64     0.4289     0.0078    -0.0323     0.0202     0.4123     1.6968    32.3200     0.3800    -0.1577
  103    2.040   2090.60     0.2826     0.0071     0.0006     0.0204     0.2781     2.1680    32.6400     0.2455    -0.1242
  104    2.060   2091.58     0.2122     0.0067     0.0256     0.0206     0.2197     3.1018    32.9600     0.1868    -0.0148
  105    2.080   2092.54     0.1810     0.0063     0.0380     0.0208     0.1958     3.3285    33.2800     0.1625     0.0893
  106    2.100   2093.50     0.1606     0.0066     0.0513     0.0210     0.1804     3.9219    33.6000     0.1468     0.1778
  107    2.120   2094.45     0.1532     0.0066     0.0608     0.0212     0.1774     4.2204    33.9200     0.1435     0.2545
  108    2.140   2095.40     0.1496     0.0065     0.0659     0.0214     0.1769     4.3743    34.2400     0.1426     0.3058
  109    2.160   2096.38     0.1454     0.0066     0.0678     0.0216     0.1735     4.4717    34.5600     0.1389     0.3248
  110    2.180   2097.33     0.1432     0.0067     0.0694     0.0218     0.1722     4.6336    34.8800     0.1374     0.3449
  111    2.200   2098.30     0.1365     0.0065     0.0708     0.0220     0.1661     4.6833    35.2000     0.1309     0.3699
  112    2.220   2099.25     0.1361     0.0063     0.0722     0.0222     0.1663     4.6440    35.5200     0.1308     0.3809
  113    2.240   2100.17     0.1332     0.0060     0.0731     0.0224     0.1637     4.5246    35.8400     0.1279     0.3937
  114    2.260   2101.12     0.1305     0.0065     0.0739     0.0226     0.1615     4.9742    36.1600     0.1254     0.4083
  115    2.280   2102.13     0.1308     0.0059     0.0745     0.0228     0.1621     4.5602    36.4800     0.1256     0.4115
  116    2.300   2103.09     0.1288     0.0058     0.0743     0.0230     0.1599     4.5165    36.8000     0.1231     0.4148
  117    2.320   2104.04     0.1282     0.0058     0.0766     0.0232     0.1600     4.4955    37.1200     0.1229     0.4277
  118    2.340   2105.00     0.1280     0.0053     0.0769     0.0234     0.1602     4.1627    37.4400     0.1228     0.4337
  119    2.360   2105.96     0.1251     0.0053     0.0767     0.0236     0.1574     4.2178    37.7600     0.1196     0.4443
  120    2.380   2106.91     0.1275     0.0047     0.0776     0.0238     0.1598     3.7262    38.0800     0.1217     0.4371
  121    2.400   2107.84     0.1204     0.0053     0.0769     0.0240     0.1527     4.3836    38.4000     0.1143     0.4631
  122    2.420   2108.80     0.1231     0.0052     0.0765     0.0242     0.1553     4.1304    38.7200     0.1165     0.4483
  123    2.440   2109.76     0.1264     0.0055     0.0777     0.0244     0.1588     4.5304    39.0400     0.1198     0.4408
  124    2.460   2110.71     0.1409     0.0051     0.0759     0.0246     0.1729     3.8857    39.3600     0.1335     0.3866
  125    2.480   2111.67     0.1456     0.0045     0.0539     0.0248     0.1702     3.2316    39.6800     0.1305     0.2581
  126    2.500   2112.63     0.1435     0.0045     0.0620     0.0250     0.1683     3.1550    40.0000     0.1283     0.2642
  127    2.520   2113.59     0.1407     0.0050     0.0670     0.0252     0.1683     3.4783    40.3200     0.1280     0.3175
  128    2.540   2114.52     0.1437     0.0051     0.0695     0.0254     0.1722     3.5975    40.6400     0.1316     0.3236
  129    2.560   2115.48     0.1481     0.0055     0.0752     0.0256     0.1789     3.8049    40.9600     0.1380     0.3474
  130    2.580   2116.46     0.1543     0.0063     0.0662     0.0258     0.1835     4.1695    41.2800     0.1423     0.3090
  131    2.600   2117.43     0.1774     0.0067     0.0497     0.0260     0.2006     3.8900    41.6000     0.1590     0.1824
  132    2.620   2118.33     0.1665     0.0067     0.0510     0.0262     0.1877     3.9749    41.9200     0.1458     0.1668
  133    2.640   2119.28     0.1750     0.0065     0.0497     0.0264     0.1965     3.7991    42.2400     0.1543     0.1599
  134    2.660   2120.29     0.1815     0.0065     0.0520     0.0266     0.2019     3.4337    42.5600     0.1593     0.1368
  135    2.680   2121.22     0.1645     0.0065     0.0587     0.0268     0.1881     4.0507    42.8800     0.1452     0.2023
  136    2.700   2122.17     0.1563     0.0061     0.0658     0.0270     0.1828     3.9090    43.2000     0.1396     0.2584
