

 Program UNIPLOT                         version 05.36.02
 _______________
 (c) Fugro Netherlands Marine, Nootdorp, The Netherlands


 ASCII representation of data plotted on a graph.

 This ASCII file presents data interpolated to values per fixed depth interval.
 The data are corrected for the depth-offset differences between the various 
 transducers in the penetrometer.

 The records at the start of penetration may include no values or anomalous
 values where a depth offset implies incomplete penetration of a particular
 sensor into the ground.

 The records at the end of penetration may include no values for data channels
 where the transducer did not reach this depth.

 The reference level for test values is (1) the ground surface for onshore tests and (2) the seafloor for nearshore and offshore tests.

 UNICAS data file          : CPT-1013.001                            
 Output using command file : PlotASCII.cmd

 ASCII file created at : date          :06-Nov-2021
                         time          :10:35:37
 Project number                        :20024805
 Date of testing                       :05-Nov-2021
 Location                              :Hong Kong Offshore Wind Farm Project
 Test name                             :CPT-1013
 Penetrometer                          :F7.5CKE2HAW2/B/2711
 Serial no                             :1701-2711

 Table description:
 Column ID                             :Parameter name
 ___________________________________________________________________________________
 Rec                                   :Record ID, Record ID [-]
 Depth                                 :Depth, Depth [m]
 Time                                  :Time, Time [s]
 Cone                                  :Cone Resistance, Cone Resistance [MPa]
 Friction                              :Sleeve Friction, Sleeve Friction [MPa]
 Pore 2                                :Porewater Pressure, Porewater Pressure at Shoulder [MPa]
 HydroPress                            :Hydrostatic Pressure, Hydrostatic Pressure [MPa]
 qt                                    :Total Cone Resistance, Total Cone Resistance [MPa]
 Fric_ratio                            :Friction Ratio, Friction Ratio [%]
 SigmaVert                             :Vertical stress, Vertical stress [kPa] as specified in ground model
 Qnet                                  :Net Cone Resistance, Net Cone Resistance [MPa], unit weight as specified in ground model
 Bq                                    :Porewater Pressure Ratio, Porewater Pressure Ratio [-], unit weight as specified in ground model


 Data table:
  Rec    Depth      Time       Cone   Friction     Pore 2 HydroPress         qt Fric_ratio  SigmaVert       Qnet         Bq
   No        m         s        MPa        MPa        MPa        MPa        MPa          %        kPa        MPa          -
    1    0.000   1688.75     0.0000                           0.0000     0.0000                0.0000     0.0000           
    2    0.020   1689.69     0.0035                0.0004     0.0002     0.0037                0.3200     0.0033     0.0484
    3    0.040   1690.69     0.0024                0.0007     0.0004     0.0027                0.6400     0.0020     0.1261
    4    0.060   1691.68     0.0077                0.0007     0.0006     0.0080                0.9600     0.0070     0.0282
    5    0.080   1692.63     0.0037                0.0008     0.0008     0.0041                1.2800     0.0028     0.0207
    6    0.100   1693.61     0.0048     0.0006     0.0007     0.0010     0.0051    13.8374     1.6000     0.0035    -0.0500
    7    0.120   1694.55     0.0046     0.0009    -0.0005     0.0012     0.0049    54.9159     1.9200     0.0029     0.5892
    8    0.140   1695.53     0.0096     0.0009    -0.0015     0.0014     0.0088     9.8603     2.2400     0.0066    -0.4994
    9    0.160   1697.92     0.0108     0.0006    -0.0011     0.0016     0.0103     6.1609     2.5600     0.0077    -0.3758
   10    0.180   1700.61     0.0117     0.0012    -0.0007     0.0018     0.0114    11.6824     2.8800     0.0085    -0.3144
   11    0.200   1702.95     0.0128     0.0007     0.0001     0.0020     0.0127     5.7422     3.2000     0.0095    -0.2404
   12    0.220   1703.95     0.0147     0.0009     0.0016     0.0022     0.0152     5.6489     3.5200     0.0116    -0.0883
   13    0.240   1704.92     0.0151     0.0012     0.0025     0.0024     0.0160     8.2232     3.8400     0.0122    -0.0301
   14    0.260   1705.90     0.0237     0.0013     0.0024     0.0026     0.0248     5.8077     4.1600     0.0206    -0.0048
   15    0.280   1706.85     0.0209     0.0015     0.0025     0.0028     0.0220     6.9838     4.4800     0.0175    -0.0181
   16    0.300   1707.82     0.0236     0.0019     0.0030     0.0030     0.0248     8.9175     4.8000     0.0200    -0.0165
   17    0.320   1708.82     0.0279     0.0018     0.0024     0.0032     0.0291     6.5919     5.1200     0.0240    -0.0169
   18    0.340   1709.75     0.0259     0.0020     0.0024     0.0034     0.0271     7.3869     5.4400     0.0216    -0.0327
   19    0.360   1710.77     0.0296     0.0022     0.0021     0.0036     0.0305     7.7133     5.7600     0.0248    -0.0567
   20    0.380   1711.72     0.0260     0.0025     0.0025     0.0038     0.0272     8.6964     6.0800     0.0211    -0.0533
   21    0.400   1712.71     0.0259     0.0027     0.0023     0.0040     0.0268    10.0863     6.4000     0.0204    -0.0947
   22    0.420   1713.63     0.0279     0.0030     0.0029     0.0042     0.0291    11.1324     6.7200     0.0224    -0.0590
   23    0.440   1714.64     0.0294     0.0026     0.0027     0.0044     0.0305     9.5006     7.0400     0.0234    -0.0746
   24    0.460   1715.61     0.0285     0.0027     0.0033     0.0046     0.0298     9.6618     7.3600     0.0224    -0.0698
   25    0.480   1716.97     0.0278     0.0028     0.0050     0.0048     0.0298    10.7753     7.6800     0.0221    -0.0048
   26    0.500   1751.37     0.0253     0.0025     0.0046     0.0050     0.0273     8.8792     8.0000     0.0193    -0.0184
   27    0.520   1783.85     0.0223     0.0024     0.0037     0.0052     0.0241    10.3985     8.3200     0.0157    -0.0642
   28    0.540   1784.82     0.0220     0.0029     0.0035     0.0054     0.0234    13.4343     8.6400     0.0148    -0.1397
   29    0.560   1785.80     0.0226     0.0027     0.0037     0.0056     0.0241    11.6081     8.9600     0.0152    -0.1351
   30    0.580   1786.78     0.0217     0.0024     0.0048     0.0058     0.0236    11.1251     9.2800     0.0143    -0.0982
   31    0.600   1787.73     0.0251     0.0026     0.0057     0.0060     0.0273    11.7050     9.6000     0.0177    -0.0360
   32    0.620   1788.70     0.0246     0.0025     0.0063     0.0062     0.0269    11.1954     9.9200     0.0170    -0.0418
   33    0.640   1789.68     0.0228     0.0027     0.0080     0.0064     0.0259    11.4458    10.2400     0.0156     0.0647
   34    0.660   1790.62     0.0216     0.0022     0.0092     0.0066     0.0253    11.2745    10.5600     0.0147     0.1529
   35    0.680   1791.59     0.0232     0.0026     0.0101     0.0068     0.0273    11.6842    10.8800     0.0164     0.1793
   36    0.700   1792.55     0.0243     0.0029     0.0101     0.0070     0.0287    10.6353    11.2000     0.0175     0.2078
   37    0.720   1793.53     0.0249     0.0021     0.0049     0.0072     0.0274     8.6487    11.5200     0.0159    -0.0914
   38    0.740   1794.47     0.0259     0.0025     0.0057     0.0074     0.0284     9.4482    11.8400     0.0166    -0.0849
   39    0.760   1795.45     0.0268     0.0023     0.0081     0.0076     0.0300     9.0581    12.1600     0.0178    -0.0092
   40    0.780   1796.41     0.0290     0.0028     0.0098     0.0078     0.0329     9.6004    12.4800     0.0204     0.0679
   41    0.800   1797.36     0.0270     0.0023     0.0109     0.0080     0.0313     8.2618    12.8000     0.0185     0.1253
   42    0.820   1798.32     0.0285     0.0026     0.0121     0.0082     0.0334     9.6123    13.1200     0.0203     0.1688
   43    0.840   1799.30     0.0267     0.0026     0.0100     0.0084     0.0317     9.4217    13.4400     0.0182     0.1865
   44    0.860   1800.25     0.0291     0.0025     0.0115     0.0086     0.0336     8.8669    13.7600     0.0198     0.1055
   45    0.880   1801.22     0.0279     0.0025     0.0136     0.0088     0.0334     8.3652    14.0800     0.0193     0.2249
   46    0.900   1802.16     0.0310     0.0024     0.0147     0.0090     0.0371     8.4176    14.4000     0.0227     0.2446
   47    0.920   1803.12     0.0252     0.0022     0.0152     0.0092     0.0315     8.0106    14.7200     0.0168     0.3502
   48    0.940   1804.10     0.0284     0.0023     0.0159     0.0094     0.0350     8.4690    15.0400     0.0200     0.3179
   49    0.960   1805.08     0.0262     0.0025     0.0165     0.0096     0.0331     9.7085    15.3600     0.0177     0.3833
   50    0.980   1806.03     0.0266     0.0024     0.0175     0.0098     0.0337     8.3243    15.6800     0.0181     0.4051
   51    1.000   1807.02     0.0290     0.0026     0.0186     0.0100     0.0367     8.9877    16.0000     0.0207     0.4019
   52    1.020   1807.97     0.0315     0.0026     0.0196     0.0102     0.0395     9.0226    16.3200     0.0232     0.3918
   53    1.040   1808.92     0.0279     0.0026     0.0201     0.0104     0.0363    10.1849    16.6400     0.0196     0.4990
   54    1.060   1809.92     0.0307     0.0025     0.0205     0.0106     0.0393     7.9938    16.9600     0.0224     0.4431
   55    1.080   1810.88     0.0336     0.0026     0.0211     0.0108     0.0423     7.8839    17.2800     0.0250     0.4018
   56    1.100   1811.86     0.0326     0.0026     0.0219     0.0110     0.0417     8.1303    17.6000     0.0241     0.4434
   57    1.120   1812.80     0.0362     0.0024     0.0226     0.0112     0.0457     7.0546    17.9200     0.0277     0.4097
   58    1.140   1813.78     0.0335     0.0026     0.0241     0.0114     0.0435     7.5091    18.2400     0.0253     0.4926
   59    1.160   1814.73     0.0333     0.0029     0.0249     0.0116     0.0435     8.6921    18.5600     0.0250     0.5137
   60    1.180   1815.72     0.0331     0.0027     0.0260     0.0118     0.0438     7.8024    18.8800     0.0250     0.5487
   61    1.200   1816.67     0.0349     0.0026     0.0254     0.0120     0.0458     7.3083    19.2000     0.0266     0.5231
   62    1.220   1817.64     0.0359     0.0029     0.0237     0.0122     0.0460     8.1264    19.5200     0.0264     0.4432
   63    1.240   1818.63     0.0391     0.0029     0.0237     0.0124     0.0490     7.2890    19.8400     0.0292     0.3846
   64    1.260   1819.60     0.0369     0.0030     0.0234     0.0126     0.0467     8.0821    20.1600     0.0265     0.4062
   65    1.280   1820.58     0.0401     0.0031     0.0229     0.0128     0.0497     8.2606    20.4800     0.0293     0.3529
   66    1.300   1821.55     0.0433     0.0025     0.0236     0.0130     0.0531     5.8826    20.8000     0.0323     0.3219
   67    1.320   1822.52     0.0400     0.0027     0.0247     0.0132     0.0502     6.7740    21.1200     0.0291     0.3857
   68    1.340   1823.49     0.0415     0.0036     0.0244     0.0134     0.0517     8.6126    21.4400     0.0303     0.3641
   69    1.360   1824.43     0.0377     0.0031     0.0249     0.0136     0.0481     8.4743    21.7600     0.0263     0.4198
   70    1.380   1825.40     0.0409     0.0030     0.0264     0.0138     0.0518     7.3876    22.0800     0.0298     0.4150
   71    1.400   1826.36     0.0425     0.0031     0.0275     0.0140     0.0540     7.5483    22.4000     0.0316     0.4220
   72    1.420   1827.34     0.0446     0.0031     0.0274     0.0142     0.0562     6.9539    22.7200     0.0335     0.3980
   73    1.440   1828.30     0.0427     0.0033     0.0290     0.0144     0.0546     7.4042    23.0400     0.0316     0.4398
   74    1.460   1829.29     0.0438     0.0031     0.0305     0.0146     0.0563     7.3732    23.3600     0.0330     0.4645
   75    1.480   1830.23     0.0446     0.0029     0.0297     0.0148     0.0570     6.4817    23.6800     0.0333     0.4430
   76    1.500   1831.17     0.0477     0.0028     0.0304     0.0150     0.0603     5.8954    24.0000     0.0363     0.4126
   77    1.520   1832.16     0.0457     0.0031     0.0310     0.0152     0.0588     6.5501    24.3200     0.0345     0.4593
   78    1.540   1833.11     0.0490     0.0033     0.0325     0.0154     0.0623     7.0145    24.6400     0.0376     0.4321
   79    1.560   1834.07     0.0460     0.0029     0.0328     0.0156     0.0601     6.3866    24.9600     0.0352     0.5159
   80    1.580   1835.04     0.0488     0.0030     0.0316     0.0158     0.0619     5.9201    25.2800     0.0366     0.4236
   81    1.600   1836.00     0.0466     0.0025     0.0329     0.0160     0.0601     5.4922    25.6000     0.0345     0.4697
   82    1.620   1836.98     0.0522     0.0026     0.0349     0.0162     0.0666     5.0391    25.9200     0.0407     0.4442
   83    1.640   1837.94     0.0557     0.0028     0.0365     0.0164     0.0708     5.2496    26.2400     0.0446     0.4406
   84    1.660   1838.88     0.0556     0.0030     0.0388     0.0166     0.0716     5.2906    26.5600     0.0450     0.4728
   85    1.680   1839.83     0.0595     0.0029     0.0365     0.0168     0.0758     4.8738    26.8800     0.0489     0.4454
   86    1.700   1840.82     0.0557     0.0029     0.0353     0.0170     0.0701     5.0111    27.2000     0.0429     0.4043
   87    1.720   1841.82     0.0530     0.0030     0.0355     0.0172     0.0679     5.5840    27.5200     0.0404     0.4561
   88    1.740   1842.76     0.0558     0.0030     0.0380     0.0174     0.0715     5.3417    27.8400     0.0437     0.4581
   89    1.760   1843.74     0.0509     0.0030     0.0391     0.0176     0.0670     5.8852    28.1600     0.0388     0.5308
   90    1.780   1844.65     0.0515     0.0030     0.0385     0.0178     0.0674     5.9407    28.4800     0.0389     0.5109
   91    1.800   1845.62     0.0503     0.0033     0.0404     0.0180     0.0671     6.4447    28.8000     0.0383     0.5746
   92    1.820   1846.59     0.0514     0.0031     0.0416     0.0182     0.0687     5.8713    29.1200     0.0396     0.5819
   93    1.840   1847.56     0.0503     0.0026     0.0415     0.0184     0.0677     5.0241    29.4400     0.0383     0.6057
   94    1.860   1848.52     0.0514     0.0030     0.0420     0.0186     0.0689     5.8112    29.7600     0.0391     0.5888
   95    1.880   1849.50     0.0486     0.0030     0.0438     0.0188     0.0669     6.1903    30.0800     0.0368     0.6700
   96    1.900   1850.43     0.0443     0.0026     0.0441     0.0190     0.0628     5.7148    30.4000     0.0324     0.7770
   97    1.920   1851.40     0.0450     0.0028     0.0432     0.0192     0.0633     6.0747    30.7200     0.0325     0.7425
   98    1.940   1852.38     0.0477     0.0026     0.0427     0.0194     0.0654     5.5471    31.0400     0.0344     0.6592
   99    1.960   1853.36     0.0457     0.0026     0.0427     0.0196     0.0636     5.6898    31.3600     0.0323     0.7150
  100    1.980   1854.31     0.0446     0.0029     0.0436     0.0198     0.0628     6.3918    31.6800     0.0311     0.7552
  101    2.000   1855.24     0.0422     0.0030     0.0439     0.0200     0.0604     6.7514    32.0000     0.0284     0.8257
  102    2.020   1856.18     0.0419     0.0031     0.0435     0.0202     0.0602     7.0329    32.3200     0.0279     0.8378
  103    2.040   1857.22     0.0442     0.0028     0.0434     0.0204     0.0625     6.6590    32.6400     0.0299     0.7745
  104    2.060   1858.20     0.0399     0.0027     0.0442     0.0206     0.0587     6.8298    32.9600     0.0258     0.9377
  105    2.080   1859.11     0.0409     0.0023     0.0453     0.0208     0.0596     5.4099    33.2800     0.0263     0.9004
  106    2.100   1863.98     0.0383     0.0026     0.0449     0.0210     0.0574     6.3462    33.6000     0.0238     1.0505
  107    2.120   1873.42     0.0341     0.0024     0.0434     0.0212     0.0525     5.9655    33.9200     0.0186     1.2463
  108    2.140   1876.87     0.0348     0.0026     0.0414     0.0214     0.0525     7.2706    34.2400     0.0182     1.1382
  109    2.160   1877.89     0.0377     0.0024     0.0434     0.0216     0.0555     6.6219    34.5600     0.0210     0.9971
  110    2.180   1878.86     0.0390     0.0024     0.0444     0.0218     0.0575     6.4347    34.8800     0.0226     0.9915
  111    2.200   1879.83     0.0405     0.0027     0.0452     0.0220     0.0592     6.5396    35.2000     0.0240     0.9410
  112    2.220   1880.81     0.0431     0.0026     0.0463     0.0222     0.0625     6.1606    35.5200     0.0270     0.8867
  113    2.240   1881.75     0.0435     0.0024     0.0469     0.0224     0.0632     5.6344    35.8400     0.0274     0.9014
  114    2.260   1882.73     0.0484     0.0025     0.0460     0.0226     0.0676     5.8309    36.1600     0.0314     0.7340
  115    2.280   1883.67     0.0456     0.0025     0.0459     0.0228     0.0654     5.2972    36.4800     0.0290     0.8413
  116    2.300   1884.63     0.0502     0.0027     0.0420     0.0230     0.0681     5.3148    36.8000     0.0313     0.6275
  117    2.320   1885.60     0.0506     0.0029     0.0396     0.0232     0.0675     5.7284    37.1200     0.0304     0.5651
  118    2.340   1886.58     0.0514     0.0030     0.0394     0.0234     0.0679     5.8132    37.4400     0.0304     0.5189
  119    2.360   1887.54     0.0497     0.0030     0.0406     0.0236     0.0666     5.8980    37.7600     0.0288     0.5785
  120    2.380   1888.49     0.0520     0.0029     0.0406     0.0238     0.0691     5.6708    38.0800     0.0310     0.5434
  121    2.400   1889.46     0.0549     0.0027     0.0403     0.0240     0.0720     5.0440    38.4000     0.0336     0.4949
  122    2.420   1890.44     0.0579     0.0029     0.0410     0.0242     0.0750     5.1948    38.7200     0.0363     0.4553
  123    2.440   1907.20     0.0589     0.0025     0.0419     0.0244     0.0763     4.3764    39.0400     0.0373     0.4614
  124    2.460   1929.75     0.0609     0.0028     0.0428     0.0246     0.0788     4.8448    39.3600     0.0394     0.4544
  125    2.480   1945.09     0.0606     0.0030     0.0423     0.0248     0.0784     4.7534    39.6800     0.0388     0.4572
  126    2.500   1946.05     0.0588     0.0028     0.0422     0.0250     0.0765     4.8350    40.0000     0.0365     0.4695
  127    2.520   1947.01     0.0593     0.0028     0.0424     0.0252     0.0772     4.6236    40.3200     0.0369     0.4701
  128    2.540   1947.97     0.0582     0.0033     0.0420     0.0254     0.0758     5.7997    40.6400     0.0352     0.4753
  129    2.560   1948.94     0.0625     0.0031     0.0436     0.0256     0.0805     4.9291    40.9600     0.0396     0.4409
  130    2.580   1949.86     0.0590     0.0031     0.0454     0.0258     0.0780     5.2155    41.2800     0.0367     0.5287
  131    2.600   1950.80     0.0609     0.0031     0.0472     0.0260     0.0803     5.1935    41.6000     0.0387     0.5267
  132    2.620   1951.77     0.0627     0.0030     0.0457     0.0262     0.0828     4.8790    41.9200     0.0408     0.5296
  133    2.640   1952.75     0.0648     0.0030     0.0457     0.0264     0.0831     4.4495    42.2400     0.0409     0.4197
  134    2.660   1953.72     0.0630     0.0030     0.0482     0.0266     0.0829     4.7876    42.5600     0.0403     0.5174
  135    2.680   1954.68     0.0664     0.0029     0.0505     0.0268     0.0874     4.6520    42.8800     0.0445     0.5204
  136    2.700   1955.62     0.0671     0.0031     0.0518     0.0270     0.0887     4.5649    43.2000     0.0455     0.5345
