

 Program UNIPLOT                         version 05.36.02
 _______________
 (c) Fugro Netherlands Marine, Nootdorp, The Netherlands


 ASCII representation of data plotted on a graph.

 This ASCII file presents data interpolated to values per fixed depth interval.
 The data are corrected for the depth-offset differences between the various 
 transducers in the penetrometer.

 The records at the start of penetration may include no values or anomalous
 values where a depth offset implies incomplete penetration of a particular
 sensor into the ground.

 The records at the end of penetration may include no values for data channels
 where the transducer did not reach this depth.

 The reference level for test values is (1) the ground surface for onshore tests and (2) the seafloor for nearshore and offshore tests.

 UNICAS data file          : CPT-1020.000                            
 Output using command file : PlotASCII.cmd

 ASCII file created at : date          :21-May-2022
                         time          :11:56:42
 Project number                        :20024805                                                                                            
 Date of testing                       :20-May-2022                                                                                         
 Location                              :Hong Kong Offshore Wind Farm Project                                                                
 Test name                             :CPT-1020
 Penetrometer                          :F7.5CKE2HAW2/B/3285
 Serial no                             :1701-3285

 Table description:
 Column ID                             :Parameter name
 ___________________________________________________________________________________
 Rec                                   :Record ID, Record ID [-]
 Depth                                 :Depth, Depth [m]
 Time                                  :Time, Time [s]
 Cone                                  :Cone Resistance, Cone Resistance [MPa]
 Friction                              :Sleeve Friction, Sleeve Friction [MPa]
 Pore 2                                :Porewater Pressure, Porewater Pressure at Shoulder [MPa]
 HydroPress                            :Hydrostatic Pressure, Hydrostatic Pressure [MPa]
 qt                                    :Total Cone Resistance, Total Cone Resistance [MPa]
 Fric_ratio                            :Friction Ratio, Friction Ratio [%]
 SigmaVert                             :Vertical stress, Vertical stress [kPa] as specified in ground model
 Qnet                                  :Net Cone Resistance, Net Cone Resistance [MPa], unit weight as specified in ground model
 Bq                                    :Porewater Pressure Ratio, Porewater Pressure Ratio [-], unit weight as specified in ground model


 Data table:
  Rec    Depth      Time       Cone   Friction     Pore 2 HydroPress         qt Fric_ratio  SigmaVert       Qnet         Bq
   No        m         s        MPa        MPa        MPa        MPa        MPa          %        kPa        MPa          -
    1    0.000   4521.69     0.0000                           0.0000     0.0000                0.0000     0.0000           
    2    0.020   4522.66     0.0015                0.0003     0.0002     0.0016                0.3200     0.0013    -0.0766
    3    0.040   4523.66     0.0038                0.0006     0.0004     0.0040                0.6400     0.0034     0.0007
    4    0.060   4524.62     0.0007     0.0005     0.0006     0.0006     0.0010   100.6455     0.9600     0.0001           
    5    0.080   4525.65     0.0051     0.0004     0.0008     0.0008     0.0054    63.4897     1.2800     0.0042     0.0206
    6    0.100   4526.65     0.0043     0.0004     0.0008     0.0010     0.0046     9.0764     1.6000     0.0030    -0.0801
    7    0.120   4527.60     0.0034     0.0003     0.0006     0.0012     0.0037    19.5941     1.9200     0.0018           
    8    0.140   4528.61     0.0039     0.0005     0.0003     0.0014     0.0042    15.6117     2.2400     0.0019    -0.4040
    9    0.160   4529.56     0.0077     0.0007     0.0004     0.0016     0.0078    11.6292     2.5600     0.0052    -0.2787
   10    0.180   4530.57     0.0075     0.0010     0.0007     0.0018     0.0079    12.7145     2.8800     0.0050    -0.1886
   11    0.200   4531.54     0.0101     0.0011     0.0000     0.0020     0.0102    10.6830     3.2000     0.0070    -0.2514
   12    0.220   4532.53     0.0137     0.0011    -0.0003     0.0022     0.0136     9.5592     3.5200     0.0101    -0.2422
   13    0.240   4535.98     0.0134     0.0011    -0.0006     0.0024     0.0132     8.3913     3.8400     0.0093    -0.3453
   14    0.260   4539.93     0.0123     0.0011    -0.0009     0.0026     0.0120     7.8025     4.1600     0.0078    -0.4747
   15    0.280   4543.33     0.0116     0.0013    -0.0007     0.0028     0.0112     9.7889     4.4800     0.0067    -0.5527
   16    0.300   4544.31     0.0104     0.0014    -0.0007     0.0030     0.0102    11.9380     4.8000     0.0054    -0.6737
   17    0.320   4555.81     0.0087     0.0014    -0.0001     0.0032     0.0085    14.5113     5.1200     0.0034     0.5100
   18    0.340   4574.76     0.0069     0.0015     0.0005     0.0034     0.0071    15.5350     5.4400     0.0016     2.8132
   19    0.360   4593.72     0.0052     0.0013     0.0018     0.0036     0.0056    16.1296     5.7600    -0.0002     5.1163
   20    0.380   4597.54     0.0039     0.0013     0.0026     0.0038     0.0050    24.9421     6.0800    -0.0011     0.2842
   21    0.400   4598.49     0.0054     0.0013     0.0041     0.0040     0.0069    21.7142     6.4000     0.0005    -1.0237
   22    0.420   4599.47     0.0055     0.0012     0.0058     0.0042     0.0076    27.9644     6.7200     0.0009     0.1393
   23    0.440   4600.42     0.0060     0.0009     0.0067     0.0044     0.0087    13.4906     7.0400     0.0017     1.4983
   24    0.460   4601.40     0.0093     0.0012     0.0063     0.0046     0.0119    15.6144     7.3600     0.0046     0.4093
   25    0.480   4602.36     0.0091     0.0014     0.0047     0.0048     0.0111    15.9286     7.6800     0.0034    -0.0125
   26    0.500   4603.35     0.0112     0.0015     0.0044     0.0050     0.0132    12.1939     8.0000     0.0052    -0.0709
   27    0.520   4604.36     0.0109     0.0014     0.0028     0.0052     0.0119    12.9229     8.3200     0.0036    -0.7772
   28    0.540   4605.32     0.0143     0.0015     0.0043     0.0054     0.0158    11.2413     8.6400     0.0072    -0.2708
   29    0.560   4606.32     0.0164     0.0018     0.0050     0.0056     0.0182    11.3117     8.9600     0.0092    -0.1337
   30    0.580   4607.26     0.0172     0.0017     0.0037     0.0058     0.0196     9.7411     9.2800     0.0103    -0.0507
   31    0.600   4608.26     0.0168     0.0021     0.0060     0.0060     0.0191    13.0493     9.6000     0.0095    -0.0542
   32    0.620   4609.24     0.0152     0.0021     0.0053     0.0062     0.0176    14.5475     9.9200     0.0076    -0.0860
   33    0.640   4610.23     0.0117     0.0020     0.0050     0.0064     0.0140    16.5074    10.2400     0.0038    -0.2510
   34    0.660   4611.19     0.0120     0.0020     0.0052     0.0066     0.0144    14.8093    10.5600     0.0039    -0.2305
   35    0.680   4612.17     0.0133     0.0020     0.0074     0.0068     0.0158    14.2723    10.8800     0.0050    -0.1409
   36    0.700   4613.13     0.0112     0.0020     0.0088     0.0070     0.0148    14.1864    11.2000     0.0036     0.4756
   37    0.720   4614.09     0.0121     0.0017     0.0097     0.0072     0.0161    13.9512    11.5200     0.0046     0.4874
   38    0.740   4615.05     0.0148     0.0016     0.0102     0.0074     0.0190    11.4209    11.8400     0.0071     0.3506
   39    0.760   4616.03     0.0140     0.0017     0.0112     0.0076     0.0186    12.4837    12.1600     0.0065     0.5359
   40    0.780   4616.96     0.0166     0.0018     0.0107     0.0078     0.0211    10.3277    12.4800     0.0087     0.3534
   41    0.800   4617.94     0.0126     0.0014     0.0103     0.0080     0.0170    12.6534    12.8000     0.0042     0.6578
   42    0.820   4618.94     0.0120     0.0015     0.0091     0.0082     0.0159    13.5176    13.1200     0.0028     0.4424
   43    0.840   4619.91     0.0145     0.0016     0.0095     0.0084     0.0184    11.0432    13.4400     0.0049     0.1707
   44    0.860   4620.87     0.0120     0.0016     0.0102     0.0086     0.0162    13.2979    13.7600     0.0024     0.6245
   45    0.880   4621.85     0.0111     0.0017     0.0087     0.0088     0.0150    13.4927    14.0800     0.0009     0.2414
   46    0.900   4622.81     0.0097     0.0013     0.0088     0.0090     0.0134    15.1551    14.4000    -0.0010     0.0348
   47    0.920   4623.79     0.0075     0.0014     0.0100     0.0092     0.0115    17.1739    14.7200    -0.0032    -0.1283
   48    0.940   4624.75     0.0056     0.0015     0.0104     0.0094     0.0099    27.3655    15.0400    -0.0051    -0.1767
   49    0.960   4625.72     0.0069     0.0014     0.0120     0.0096     0.0115    21.0957    15.3600    -0.0038    -0.4007
   50    0.980   4626.68     0.0032     0.0014     0.0097     0.0098     0.0079    32.8350    15.6800    -0.0078    -0.1691
   51    1.000   4627.71     0.0076     0.0015     0.0096     0.0100     0.0116    21.6149    16.0000    -0.0044     0.1150
   52    1.020   4628.66     0.0060     0.0013     0.0117     0.0102     0.0106    22.2225    16.3200    -0.0057    -0.1463
   53    1.040   4629.67     0.0112     0.0015     0.0127     0.0104     0.0162    15.3133    16.6400    -0.0004    -6.3902
   54    1.060   4630.64     0.0118     0.0015     0.0138     0.0106     0.0175    11.7385    16.9600     0.0006     5.9916
   55    1.080   4631.59     0.0191     0.0017     0.0145     0.0108     0.0251     9.0030    17.2800     0.0078     0.4349
   56    1.100   4632.58     0.0221     0.0019     0.0139     0.0110     0.0281     8.6646    17.6000     0.0105     0.3135
   57    1.120   4633.58     0.0252     0.0020     0.0128     0.0112     0.0306     8.7309    17.9200     0.0127     0.1415
   58    1.140   4634.55     0.0227     0.0021     0.0142     0.0114     0.0285     9.2370    18.2400     0.0102     0.2253
   59    1.160   4635.51     0.0253     0.0020     0.0152     0.0116     0.0316     8.6249    18.5600     0.0130     0.2548
   60    1.180   4636.50     0.0258     0.0023     0.0170     0.0118     0.0326     9.0040    18.8800     0.0138     0.3298
   61    1.200   4637.42     0.0251     0.0023     0.0187     0.0120     0.0326     9.3031    19.2000     0.0134     0.4464
   62    1.220   4638.39     0.0231     0.0020     0.0178     0.0122     0.0308     8.4004    19.5200     0.0113     0.5563
   63    1.240   4639.39     0.0218     0.0020     0.0185     0.0124     0.0298     8.9185    19.8400     0.0099     0.6568
   64    1.260   4640.37     0.0193     0.0022     0.0181     0.0126     0.0268    11.7235    20.1600     0.0066     0.8127
   65    1.280   4641.37     0.0203     0.0020     0.0184     0.0128     0.0281     9.8008    20.4800     0.0076     0.7699
   66    1.300   4642.34     0.0171     0.0019     0.0193     0.0130     0.0250    10.4364    20.8000     0.0042     1.4096
   67    1.320   4643.29     0.0190     0.0020     0.0215     0.0132     0.0278    10.7422    21.1200     0.0066     1.1487
   68    1.340   4644.26     0.0171     0.0020     0.0228     0.0134     0.0265    11.8071    21.4400     0.0051     1.8616
   69    1.360   4645.21     0.0175     0.0021     0.0239     0.0136     0.0275    11.5041    21.7600     0.0057     1.7818
   70    1.380   4646.18     0.0225     0.0020     0.0247     0.0138     0.0328    10.1179    22.0800     0.0107     1.0119
   71    1.400   4647.16     0.0219     0.0019     0.0253     0.0140     0.0325     9.1556    22.4000     0.0101     1.1151
   72    1.420   4648.12     0.0175     0.0017     0.0256     0.0142     0.0282     9.4282    22.7200     0.0055     2.0726
   73    1.440   4649.14     0.0216     0.0017     0.0261     0.0144     0.0326     7.6927    23.0400     0.0096     1.2329
   74    1.460   4650.12     0.0238     0.0019     0.0272     0.0146     0.0351     8.3475    23.3600     0.0117     1.0500
   75    1.480   4651.10     0.0246     0.0021     0.0264     0.0148     0.0356     8.7620    23.6800     0.0120     0.9625
   76    1.500   4652.02     0.0294     0.0018     0.0280     0.0150     0.0410     6.3847    24.0000     0.0170     0.7503
   77    1.520   4653.02     0.0313     0.0019     0.0272     0.0152     0.0430     6.3342    24.3200     0.0187     0.6790
   78    1.540   4654.01     0.0357     0.0019     0.0250     0.0154     0.0467     5.4607    24.6400     0.0221     0.4869
   79    1.560   4655.03     0.0394     0.0023     0.0236     0.0156     0.0492     6.4244    24.9600     0.0242     0.3196
   80    1.580   4655.98     0.0400     0.0029     0.0249     0.0158     0.0506     7.2847    25.2800     0.0253     0.3669
   81    1.600   4656.97     0.0424     0.0029     0.0255     0.0160     0.0529     7.2006    25.6000     0.0273     0.3286
   82    1.620   4657.95     0.0447     0.0025     0.0239     0.0162     0.0550     5.6877    25.9200     0.0291     0.2865
   83    1.640   4658.92     0.0430     0.0028     0.0233     0.0164     0.0527     6.3912    26.2400     0.0265     0.2524
   84    1.660   4659.88     0.0425     0.0026     0.0281     0.0166     0.0536     5.9962    26.5600     0.0270     0.3649
   85    1.680   4660.88     0.0378     0.0027     0.0324     0.0168     0.0509     6.8133    26.8800     0.0241     0.6036
   86    1.700   4661.84     0.0362     0.0024     0.0323     0.0170     0.0501     6.9071    27.2000     0.0229     0.7096
   87    1.720   4662.79     0.0418     0.0023     0.0332     0.0172     0.0556     5.5335    27.5200     0.0281     0.5559
   88    1.740   4663.76     0.0421     0.0023     0.0341     0.0174     0.0563     5.4491    27.8400     0.0284     0.5727
   89    1.760   4664.75     0.0418     0.0025     0.0340     0.0176     0.0560     6.0101    28.1600     0.0279     0.5845
   90    1.780   4665.71     0.0456     0.0024     0.0330     0.0178     0.0593     5.2014    28.4800     0.0308     0.4802
   91    1.800   4666.66     0.0404     0.0026     0.0331     0.0180     0.0550     6.1869    28.8000     0.0262     0.6356
   92    1.820   4667.61     0.0451     0.0028     0.0338     0.0182     0.0588     6.0182    29.1200     0.0297     0.4831
   93    1.840   4668.63     0.0463     0.0027     0.0356     0.0184     0.0614     6.0362    29.4400     0.0319     0.5456
   94    1.860   4669.59     0.0461     0.0025     0.0385     0.0186     0.0620     5.2501    29.7600     0.0323     0.5975
   95    1.880   4670.59     0.0438     0.0021     0.0389     0.0188     0.0604     4.8691    30.0800     0.0304     0.6827
   96    1.900   4671.51     0.0489     0.0024     0.0392     0.0190     0.0649     4.8906    30.4000     0.0345     0.5569
   97    1.920   4672.49     0.0533     0.0031     0.0404     0.0192     0.0702     5.8878    30.7200     0.0395     0.5353
   98    1.940   4673.47     0.0608     0.0034     0.0417     0.0194     0.0784     5.5862    31.0400     0.0474     0.4729
   99    1.960   4674.44     0.0695     0.0035     0.0337     0.0196     0.0852     5.0910    31.3600     0.0539     0.3304
  100    1.980   4675.44     0.0694     0.0032     0.0269     0.0198     0.0812     4.5428    31.6800     0.0495     0.1653
  101    2.000   4676.39     0.0664     0.0036     0.0309     0.0200     0.0782     5.3600    32.0000     0.0462     0.1776
  102    2.020   4677.41     0.0629     0.0035     0.0373     0.0202     0.0779     5.2818    32.3200     0.0455     0.3400
  103    2.040   4678.32     0.0642     0.0029     0.0416     0.0204     0.0810     4.4735    32.6400     0.0483     0.4104
  104    2.060   4679.33     0.0562     0.0029     0.0442     0.0206     0.0746     5.0353    32.9600     0.0417     0.5573
  105    2.080   4680.33     0.0530     0.0027     0.0428     0.0208     0.0716     4.8278    33.2800     0.0383     0.6137
  106    2.100   4681.34     0.0508     0.0025     0.0435     0.0210     0.0690     4.6292    33.6000     0.0354     0.6276
  107    2.120   4682.27     0.0508     0.0023     0.0399     0.0212     0.0685     4.4307    33.9200     0.0346     0.6060
  108    2.140   4683.27     0.0488     0.0026     0.0375     0.0214     0.0647     5.3117    34.2400     0.0304     0.5398
  109    2.160   4684.20     0.0456     0.0027     0.0392     0.0216     0.0617     5.8560    34.5600     0.0272     0.6186
  110    2.180   4694.33     0.0464     0.0025     0.0394     0.0218     0.0629     5.3725    34.8800     0.0280     0.6290
  111    2.200   4711.38     0.0457     0.0023     0.0394     0.0220     0.0623     4.9244    35.2000     0.0271     0.6440
  112    2.220   4728.43     0.0451     0.0024     0.0394     0.0222     0.0617     5.0366    35.5200     0.0261     0.6589
  113    2.240   4736.31     0.0442     0.0025     0.0459     0.0224     0.0621     5.6834    35.8400     0.0262     0.7644
  114    2.260   4737.27     0.0472     0.0027     0.0503     0.0226     0.0679     5.8665    36.1600     0.0317     0.8387
  115    2.280   4738.28     0.0529     0.0027     0.0477     0.0228     0.0728     5.4917    36.4800     0.0363     0.6751
  116    2.300   4739.22     0.0532     0.0026     0.0481     0.0230     0.0729     4.8931    36.8000     0.0361     0.6606
  117    2.320   4740.22     0.0544     0.0023     0.0512     0.0232     0.0756     4.2614    37.1200     0.0384     0.7059
  118    2.340   4741.16     0.0572     0.0026     0.0551     0.0234     0.0798     4.5210    37.4400     0.0423     0.7153
  119    2.360   4742.10     0.0630     0.0023     0.0593     0.0236     0.0877     3.6233    37.7600     0.0499     0.7054
  120    2.380   4743.13     0.0648     0.0020     0.0612     0.0238     0.0903     3.1054    38.0800     0.0522     0.7050
  121    2.400   4744.11     0.0652     0.0021     0.0589     0.0240     0.0906     3.1660    38.4000     0.0522     0.6993
  122    2.420   4745.06     0.0637     0.0022     0.0501     0.0242     0.0850     3.6265    38.7200     0.0463     0.5748
  123    2.440   4746.04     0.0729     0.0028     0.0528     0.0244     0.0948     4.0016    39.0400     0.0557     0.4967
  124    2.460   4746.97     0.0850     0.0026     0.0485     0.0246     0.1062     3.2250    39.3600     0.0669     0.3909
  125    2.480   4747.96     0.0894     0.0031     0.0438     0.0248     0.1086     3.4675    39.6800     0.0689     0.3049
  126    2.500   4748.93     0.0838     0.0031     0.0382     0.0250     0.1009     3.5852    40.0000     0.0609     0.2564
  127    2.520   4749.91     0.0717     0.0030     0.0379     0.0252     0.0870     4.2394    40.3200     0.0467     0.2424
  128    2.540   4750.89     0.0764     0.0031     0.0412     0.0254     0.0933     4.0939    40.6400     0.0527     0.2835
  129    2.560   4751.89     0.0803     0.0034     0.0462     0.0256     0.0998     4.2385    40.9600     0.0588     0.3524
  130    2.580   4752.84     0.0779     0.0035     0.0432     0.0258     0.0959     4.5046    41.2800     0.0546     0.3127
  131    2.600   4753.83     0.0660     0.0032     0.0417     0.0260     0.0842     4.7240    41.6000     0.0426     0.4084
  132    2.620   4754.76     0.0700     0.0035     0.0393     0.0262     0.0857     5.0706    41.9200     0.0438     0.2553
  133    2.640   4755.76     0.0771     0.0038     0.0417     0.0264     0.0950     5.1152    42.2400     0.0527     0.3088
  134    2.660   4756.73     0.0879     0.0038     0.0476     0.0266     0.1068     4.4534    42.5600     0.0643     0.2849
