

 Program UNIPLOT                         version 05.36.02
 _______________
 (c) Fugro Netherlands Marine, Nootdorp, The Netherlands


 ASCII representation of data plotted on a graph.

 This ASCII file presents data interpolated to values per fixed depth interval.
 The data are corrected for the depth-offset differences between the various 
 transducers in the penetrometer.

 The records at the start of penetration may include no values or anomalous
 values where a depth offset implies incomplete penetration of a particular
 sensor into the ground.

 The records at the end of penetration may include no values for data channels
 where the transducer did not reach this depth.

 The reference level for test values is (1) the ground surface for onshore tests and (2) the seafloor for nearshore and offshore tests.

 UNICAS data file          : CPT-2010.000                            
 Output using command file : PlotASCII.cmd

 ASCII file created at : date          :14-Jul-2022
                         time          :13:57:26
 Project number                        :20024805                                                                                            
 Date of testing                       :11-Jul-2022                                                                                         
 Location                              :Hong Kong Offshore Wind Farm Project                                                                
 Test name                             :CPT-2010
 Penetrometer                          :F7.5CKE2HAW2/B/3285
 Serial no                             :1701-3285

 Table description:
 Column ID                             :Parameter name
 ___________________________________________________________________________________
 Rec                                   :Record ID, Record ID [-]
 Depth                                 :Depth, Depth [m]
 Time                                  :Time, Time [s]
 Cone                                  :Cone Resistance, Cone Resistance [MPa]
 Friction                              :Sleeve Friction, Sleeve Friction [MPa]
 Pore 2                                :Porewater Pressure, Porewater Pressure at Shoulder [MPa]
 HydroPress                            :Hydrostatic Pressure, Hydrostatic Pressure [MPa]
 qt                                    :Total Cone Resistance, Total Cone Resistance [MPa]
 Fric_ratio                            :Friction Ratio, Friction Ratio [%]
 SigmaVert                             :Vertical stress, Vertical stress [kPa] as specified in ground model
 Qnet                                  :Net Cone Resistance, Net Cone Resistance [MPa], unit weight as specified in ground model
 Bq                                    :Porewater Pressure Ratio, Porewater Pressure Ratio [-], unit weight as specified in ground model


 Data table:
  Rec    Depth      Time       Cone   Friction     Pore 2 HydroPress         qt Fric_ratio  SigmaVert       Qnet         Bq
   No        m         s        MPa        MPa        MPa        MPa        MPa          %        kPa        MPa          -
    1    0.000   2661.22     0.0000                           0.0000     0.0000                0.0000     0.0000           
    2    0.020   2816.12     0.0040                0.0014     0.0002     0.0045                0.3200     0.0042     0.2811
    3    0.040   2817.21     0.0066                0.0016     0.0004     0.0073                0.6400     0.0067     0.2024
    4    0.060   2818.10     0.0120     0.0007     0.0018     0.0006     0.0127     5.9622     0.9600     0.0117     0.0883
    5    0.080   2819.03     0.0120     0.0010     0.0020     0.0008     0.0129     8.2743     1.2800     0.0116     0.0994
    6    0.100   2819.93     0.0149     0.0007     0.0017     0.0010     0.0157     4.4708     1.6000     0.0141     0.0662
    7    0.120   2820.87     0.0149     0.0011     0.0006     0.0012     0.0153     7.3336     1.9200     0.0134    -0.0136
    8    0.140   2821.76     0.0144     0.0014     0.0001     0.0014     0.0145    10.0221     2.2400     0.0122    -0.0992
    9    0.160   2822.69     0.0142     0.0014    -0.0012     0.0016     0.0138     9.9466     2.5600     0.0113    -0.2288
   10    0.180   2823.64     0.0112     0.0016    -0.0024     0.0018     0.0103    13.6244     2.8800     0.0074    -0.5574
   11    0.200   2824.56     0.0133     0.0014    -0.0026     0.0020     0.0121    12.2407     3.2000     0.0089    -0.5773
   12    0.220   2825.48     0.0106     0.0013    -0.0014     0.0022     0.0099    11.6189     3.5200     0.0063    -0.6409
   13    0.240   2826.40     0.0120     0.0010     0.0002     0.0024     0.0118     8.6414     3.8400     0.0079    -0.3710
   14    0.260   2827.27     0.0111     0.0010     0.0011     0.0026     0.0112     8.8771     4.1600     0.0070    -0.3483
   15    0.280   2828.17     0.0059     0.0011     0.0027     0.0028     0.0069     9.7877     4.4800     0.0024    -0.1136
   16    0.300   2829.08     0.0081     0.0012     0.0035     0.0030     0.0094    11.2674     4.8000     0.0046     0.0494
   17    0.320   2829.99     0.0082     0.0013     0.0042     0.0032     0.0099    12.7471     5.1200     0.0048     0.1661
   18    0.340   2830.91     0.0106     0.0014     0.0042     0.0034     0.0124    14.2269     5.4400     0.0070     0.1161
   19    0.360   2831.82     0.0074     0.0015     0.0048     0.0036     0.0093    21.0727     5.7600     0.0036     0.3356
   20    0.380   2834.95     0.0140     0.0017     0.0060     0.0038     0.0165    14.8348     6.0800     0.0104     0.2918
   21    0.400   2845.71     0.0371     0.0016     0.0065     0.0040     0.0397    17.1085     6.4000     0.0333     0.2169
   22    0.420   2856.46     0.0601     0.0020     0.0069     0.0042     0.0630    21.5759     6.7200     0.0562     0.1420
   23    0.440   2867.22     0.0832     0.0021     0.0073     0.0044     0.0862    23.0058     7.0400     0.0791     0.0671
   24    0.460   2872.71     0.1516     0.0021     0.0053     0.0046     0.1541     1.5036     7.3600     0.1467     0.0091
   25    0.480   2873.58     0.2098     0.0026     0.0000     0.0048     0.2108     1.2894     7.6800     0.2031    -0.0118
   26    0.500   2874.53     0.2532     0.0032    -0.0152     0.0050     0.2492     1.5061     8.0000     0.2412    -0.0595
   27    0.520   2875.46     0.2582     0.0038    -0.0302     0.0052     0.2486     1.7227     8.3200     0.2402    -0.1175
   28    0.540   2876.36     0.2364     0.0045    -0.0297     0.0054     0.2213     1.9393     8.6400     0.2127    -0.1948
   29    0.560   2877.28     0.2336     0.0051    -0.0373     0.0056     0.2165     2.1559     8.9600     0.2076    -0.2234
   30    0.580   2878.16     0.2495     0.0052    -0.0470     0.0058     0.2299     2.4401     9.2800     0.2207    -0.2374
   31    0.600   2884.94     0.2431     0.0057    -0.0467     0.0060     0.2235     2.2408     9.6000     0.2139    -0.2487
   32    0.620   2891.88     0.2338     0.0057    -0.0463     0.0062     0.2143     2.2443     9.9200     0.2044    -0.2604
   33    0.640   2898.82     0.2245     0.0055    -0.0460     0.0064     0.2051     2.1694    10.2400     0.1949    -0.2722
   34    0.660   2905.75     0.2152     0.0044    -0.0456     0.0066     0.1959     1.7463    10.5600     0.1854    -0.2840
   35    0.680   2910.55     0.2047     0.0033    -0.0364     0.0068     0.1877     1.5954    10.8800     0.1768    -0.2671
   36    0.700   2911.44     0.1857     0.0027    -0.0525     0.0070     0.1685     1.4260    11.2000     0.1573    -0.3083
   37    0.720   2912.34     0.1656     0.0028    -0.0815     0.0072     0.1332     1.6338    11.5200     0.1217    -0.7098
   38    0.740   2913.29     0.0980     0.0027    -0.0808     0.0074     0.0644     2.5245    11.8400     0.0526    -1.8348
   39    0.760   2914.22     0.0492     0.0026    -0.0602     0.0076     0.0211     4.7675    12.1600     0.0090   -17.2423
   40    0.780   2915.16     0.0320     0.0021    -0.0432     0.0078     0.0120     6.2164    12.4800    -0.0005    63.4306
   41    0.800   2916.07     0.0262     0.0012    -0.0322     0.0080     0.0112     4.2692    12.8000    -0.0016    -0.6644
   42    0.820   2916.96     0.0253     0.0013    -0.0232     0.0082     0.0143     5.0217    13.1200     0.0012   -30.0102
   43    0.840   2917.86     0.0269     0.0011    -0.0160     0.0084     0.0193     4.2479    13.4400     0.0058    -4.7780
   44    0.860   2918.73     0.0258     0.0011    -0.0100     0.0086     0.0208     4.2690    13.7600     0.0070    -2.9020
   45    0.880   2919.61     0.0241     0.0014    -0.0050     0.0088     0.0213     5.6564    14.0800     0.0072    -2.1583
   46    0.900   2920.56     0.0262     0.0014    -0.0004     0.0090     0.0254     5.2902    14.4000     0.0110    -0.9945
   47    0.920   2921.48     0.0279     0.0013     0.0030     0.0092     0.0286     4.4238    14.7200     0.0139    -0.5376
   48    0.940   2923.87     0.0292     0.0017     0.0084     0.0094     0.0320     6.7198    15.0400     0.0170    -0.1604
   49    0.960   2927.43     0.0290     0.0017     0.0127     0.0096     0.0337     6.7756    15.3600     0.0184     0.0729
   50    0.980   2930.05     0.0287     0.0017     0.0149     0.0098     0.0347     5.8921    15.6800     0.0191     0.2413
   51    1.000   2930.96     0.0302     0.0015     0.0163     0.0100     0.0369     4.9427    16.0000     0.0209     0.2863
   52    1.020   2931.83     0.0290     0.0019     0.0166     0.0102     0.0358     6.8414    16.3200     0.0195     0.3094
   53    1.040   2932.82     0.0283     0.0017     0.0176     0.0104     0.0356     5.9512    16.6400     0.0189     0.3590
   54    1.060   2933.70     0.0317     0.0019     0.0182     0.0106     0.0392     6.1178    16.9600     0.0222     0.3267
   55    1.080   2934.61     0.0339     0.0019     0.0194     0.0108     0.0419     5.7883    17.2800     0.0246     0.3346
   56    1.100   2935.51     0.0341     0.0019     0.0203     0.0110     0.0426     5.9315    17.6000     0.0250     0.3730
   57    1.120   2936.39     0.0365     0.0020     0.0210     0.0112     0.0453     5.4072    17.9200     0.0274     0.3509
   58    1.140   2937.26     0.0369     0.0020     0.0216     0.0114     0.0459     5.4267    18.2400     0.0277     0.3624
   59    1.160   2938.18     0.0384     0.0023     0.0221     0.0116     0.0476     6.0984    18.5600     0.0291     0.3560
   60    1.180   2939.13     0.0379     0.0022     0.0216     0.0118     0.0471     5.7956    18.8800     0.0282     0.3612
   61    1.200   2940.03     0.0366     0.0018     0.0211     0.0120     0.0454     4.8789    19.2000     0.0262     0.3459
   62    1.220   2940.93     0.0359     0.0023     0.0216     0.0122     0.0449     6.5567    19.5200     0.0254     0.3644
   63    1.240   2941.85     0.0407     0.0025     0.0234     0.0124     0.0504     6.0304    19.8400     0.0305     0.3472
   64    1.260   2942.78     0.0425     0.0025     0.0233     0.0126     0.0524     5.9856    20.1600     0.0322     0.3418
   65    1.280   2943.68     0.0464     0.0025     0.0232     0.0128     0.0561     5.5434    20.4800     0.0356     0.2850
   66    1.300   2944.59     0.0482     0.0027     0.0232     0.0130     0.0579     5.8279    20.8000     0.0371     0.2777
   67    1.320   2945.47     0.0513     0.0027     0.0224     0.0132     0.0608     5.1717    21.1200     0.0397     0.2410
   68    1.340   2946.37     0.0483     0.0027     0.0209     0.0134     0.0573     5.5625    21.4400     0.0358     0.2209
   69    1.360   2947.29     0.0511     0.0031     0.0201     0.0136     0.0594     6.0840    21.7600     0.0377     0.1639
   70    1.380   2948.21     0.0495     0.0027     0.0218     0.0138     0.0583     5.4087    22.0800     0.0363     0.2009
   71    1.400   2949.11     0.0472     0.0026     0.0225     0.0140     0.0566     5.5737    22.4000     0.0342     0.2434
   72    1.420   2950.04     0.0449     0.0025     0.0227     0.0142     0.0544     5.5655    22.7200     0.0317     0.2660
   73    1.440   2950.91     0.0434     0.0025     0.0243     0.0144     0.0533     5.8535    23.0400     0.0302     0.3041
   74    1.460   2951.80     0.0464     0.0024     0.0266     0.0146     0.0573     5.1224    23.3600     0.0340     0.3352
   75    1.480   2952.71     0.0457     0.0023     0.0286     0.0148     0.0574     5.1781    23.6800     0.0337     0.3876
   76    1.500   2953.62     0.0520     0.0022     0.0305     0.0150     0.0645     4.3174    24.0000     0.0405     0.3660
   77    1.520   2954.54     0.0546     0.0023     0.0323     0.0152     0.0679     4.2337    24.3200     0.0436     0.3804
   78    1.540   2955.45     0.0556     0.0026     0.0306     0.0154     0.0690     4.7176    24.6400     0.0443     0.3712
   79    1.560   2956.32     0.0578     0.0023     0.0275     0.0156     0.0694     3.9716    24.9600     0.0445     0.2729
   80    1.580   2957.24     0.0540     0.0026     0.0277     0.0158     0.0657     4.8713    25.2800     0.0404     0.2953
   81    1.600   2958.17     0.0574     0.0029     0.0294     0.0160     0.0694     5.0559    25.6000     0.0438     0.2879
   82    1.620   2959.07     0.0613     0.0030     0.0307     0.0162     0.0741     4.9095    25.9200     0.0481     0.2934
   83    1.640   2959.99     0.0659     0.0029     0.0297     0.0164     0.0787     4.4020    26.2400     0.0524     0.2670
   84    1.660   2960.87     0.0669     0.0030     0.0306     0.0166     0.0797     4.5290    26.5600     0.0531     0.2596
   85    1.680   2961.78     0.0684     0.0036     0.0289     0.0168     0.0812     5.3068    26.8800     0.0544     0.2526
   86    1.700   2962.69     0.0706     0.0039     0.0323     0.0170     0.0833     5.5700    27.2000     0.0561     0.2342
   87    1.720   2963.64     0.0711     0.0038     0.0361     0.0172     0.0858     5.3969    27.5200     0.0582     0.3051
   88    1.740   2964.58     0.0712     0.0038     0.0371     0.0174     0.0867     5.2960    27.8400     0.0589     0.3326
   89    1.760   2983.47     0.0743     0.0038     0.0367     0.0176     0.0898     5.1740    28.1600     0.0616     0.3157
   90    1.780   3046.86     0.0779     0.0044     0.0356     0.0178     0.0930     5.9949    28.4800     0.0645     0.2836
   91    1.800   3100.83     0.0801     0.0043     0.0335     0.0180     0.0947     5.3592    28.8000     0.0659     0.2522
   92    1.820   3101.73     0.0780     0.0040     0.0338     0.0182     0.0916     5.1333    29.1200     0.0625     0.2268
   93    1.840   3102.65     0.0781     0.0040     0.0328     0.0184     0.0922     5.1284    29.4400     0.0628     0.2424
   94    1.860   3103.57     0.0801     0.0038     0.0347     0.0186     0.0940     4.7816    29.7600     0.0643     0.2273
   95    1.880   3104.47     0.0780     0.0039     0.0412     0.0188     0.0943     4.9832    30.0800     0.0642     0.3105
   96    1.900   3105.37     0.0815     0.0040     0.0464     0.0190     0.1003     4.9394    30.4000     0.0699     0.3709
   97    1.920   3106.24     0.0790     0.0039     0.0479     0.0192     0.0993     4.8726    30.7200     0.0685     0.4235
   98    1.940   3107.17     0.0812     0.0036     0.0474     0.0194     0.1011     4.4037    31.0400     0.0701     0.4013
   99    1.960   3108.07     0.0784     0.0038     0.0495     0.0196     0.0988     4.8398    31.3600     0.0674     0.4270
  100    1.980   3108.95     0.0779     0.0034     0.0537     0.0198     0.0999     4.3747    31.6800     0.0682     0.4769
  101    2.000   3109.85     0.0759     0.0035     0.0567     0.0200     0.0993     4.5718    32.0000     0.0673     0.5316
  102    2.020   3110.73     0.0767     0.0035     0.0595     0.0202     0.1014     4.5884    32.3200     0.0691     0.5588
  103    2.040   3111.60     0.0763     0.0035     0.0610     0.0204     0.1019     4.5754    32.6400     0.0693     0.5846
  104    2.060   3112.53     0.0755     0.0032     0.0626     0.0206     0.1014     4.1986    32.9600     0.0684     0.6009
  105    2.080   3113.40     0.0764     0.0033     0.0635     0.0208     0.1031     4.2929    33.2800     0.0698     0.6125
  106    2.100   3114.34     0.0772     0.0033     0.0640     0.0210     0.1039     4.2849    33.6000     0.0703     0.6032
  107    2.120   3115.23     0.0792     0.0034     0.0657     0.0212     0.1067     4.2949    33.9200     0.0728     0.6072
  108    2.140   3116.14     0.0820     0.0035     0.0645     0.0214     0.1093     4.3595    34.2400     0.0750     0.5800
  109    2.160   3117.04     0.0856     0.0037     0.0625     0.0216     0.1121     4.3952    34.5600     0.0776     0.5351
  110    2.180   3117.92     0.0867     0.0038     0.0619     0.0218     0.1128     4.4118    34.8800     0.0780     0.5197
  111    2.200   3118.83     0.0844     0.0040     0.0620     0.0220     0.1102     4.7549    35.2000     0.0750     0.5250
  112    2.220   3119.75     0.0882     0.0039     0.0638     0.0222     0.1147     4.4004    35.5200     0.0792     0.5172
  113    2.240   3120.69     0.0842     0.0037     0.0665     0.0224     0.1120     4.4194    35.8400     0.0761     0.5732
  114    2.260   3121.61     0.0874     0.0039     0.0674     0.0226     0.1157     4.4243    36.1600     0.0795     0.5636
  115    2.280   3122.53     0.0902     0.0041     0.0673     0.0228     0.1185     4.5581    36.4800     0.0820     0.5420
  116    2.300   3123.39     0.0873     0.0038     0.0678     0.0230     0.1157     4.3873    36.8000     0.0789     0.5637
  117    2.320   3124.27     0.0920     0.0044     0.0677     0.0232     0.1205     4.7558    37.1200     0.0834     0.5359
  118    2.340   3125.19     0.0934     0.0041     0.0688     0.0234     0.1224     4.4280    37.4400     0.0850     0.5395
  119    2.360   3126.14     0.0973     0.0042     0.0696     0.0236     0.1264     4.3227    37.7600     0.0886     0.5147
  120    2.380   3127.03     0.0957     0.0043     0.0690     0.0238     0.1249     4.5239    38.0800     0.0869     0.5269
  121    2.400   3127.92     0.0959     0.0038     0.0682     0.0240     0.1245     3.9727    38.4000     0.0861     0.5104
  122    2.420   3128.82     0.0960     0.0044     0.0702     0.0242     0.1251     4.5724    38.7200     0.0864     0.5226
  123    2.440   3129.68     0.0977     0.0045     0.0715     0.0244     0.1276     4.6442    39.0400     0.0886     0.5292
  124    2.460   3130.59     0.0969     0.0044     0.0698     0.0246     0.1265     4.4959    39.3600     0.0872     0.5264
  125    2.480   3131.48     0.0946     0.0046     0.0694     0.0248     0.1238     4.7313    39.6800     0.0841     0.5322
  126    2.500   3132.40     0.0963     0.0046     0.0674     0.0250     0.1250     4.8216    40.0000     0.0850     0.5088
  127    2.520   3133.32     0.0929     0.0044     0.0684     0.0252     0.1214     4.7173    40.3200     0.0810     0.5249
  128    2.540   3134.18     0.0961     0.0043     0.0687     0.0254     0.1249     4.5381    40.6400     0.0843     0.5148
  129    2.560   3135.06     0.0928     0.0044     0.0670     0.0256     0.1212     4.7243    40.9600     0.0803     0.5239
  130    2.580   3136.01     0.0909     0.0043     0.0662     0.0258     0.1188     4.7353    41.2800     0.0775     0.5241
  131    2.600   3136.89     0.0905     0.0044     0.0645     0.0260     0.1180     4.8114    41.6000     0.0764     0.5181
  132    2.620   3137.82     0.0900     0.0041     0.0631     0.0262     0.1164     4.5509    41.9200     0.0745     0.4927
  133    2.640   3138.68     0.0871     0.0042     0.0640     0.0264     0.1140     4.8518    42.2400     0.0718     0.5238
  134    2.660   3139.64     0.0786     0.0042     0.0647     0.0266     0.1054     5.3169    42.5600     0.0628     0.5925
