

 Program UNIPLOT                         version 05.36.02
 _______________
 (c) Fugro Netherlands Marine, Nootdorp, The Netherlands


 ASCII representation of data plotted on a graph.

 This ASCII file presents data interpolated to values per fixed depth interval.
 The data are corrected for the depth-offset differences between the various 
 transducers in the penetrometer.

 The records at the start of penetration may include no values or anomalous
 values where a depth offset implies incomplete penetration of a particular
 sensor into the ground.

 The records at the end of penetration may include no values for data channels
 where the transducer did not reach this depth.

 The reference level for test values is (1) the ground surface for onshore tests and (2) the seafloor for nearshore and offshore tests.

 UNICAS data file          : CPT-2013(S).000                         
 Output using command file : PlotASCII.cmd

 ASCII file created at : date          :24-May-2022
                         time          :16:07:25
 Project number                        :20024805                                                                                            
 Date of testing                       :26-Apr-2022                                                                                         
 Location                              :Hong Kong Offshore Wind Farm Project                                                                
 Test name                             :CPT-2013(S)
 Penetrometer                          :F7.5CKE2X3S\B\2753
 Serial no                             :1701-2753

 Table description:
 Column ID                             :Parameter name
 ___________________________________________________________________________________
 Rec                                   :Record ID, Record ID [-]
 Depth                                 :Depth, Depth [m]
 Time                                  :Time, Time [s]
 Cone                                  :Cone Resistance, Cone Resistance [MPa]
 Friction                              :Sleeve Friction, Sleeve Friction [MPa]
 Pore 2                                :Porewater Pressure, Porewater Pressure at Shoulder [MPa]
 HydroPress                            :Hydrostatic Pressure, Hydrostatic Pressure [MPa]
 qt                                    :Total Cone Resistance, Total Cone Resistance [MPa]
 Fric_ratio                            :Friction Ratio, Friction Ratio [%]
 SigmaVert                             :Vertical stress, Vertical stress [kPa] as specified in ground model
 Qnet                                  :Net Cone Resistance, Net Cone Resistance [MPa], unit weight as specified in ground model
 Bq                                    :Porewater Pressure Ratio, Porewater Pressure Ratio [-], unit weight as specified in ground model


 Data table:
  Rec    Depth      Time       Cone   Friction     Pore 2 HydroPress         qt Fric_ratio  SigmaVert       Qnet         Bq
   No        m         s        MPa        MPa        MPa        MPa        MPa          %        kPa        MPa          -
    1    0.000   2562.50     0.0000                           0.0000     0.0000                0.0000     0.0000           
    2    0.020   2563.55     0.0015                0.0007     0.0002     0.0017                0.3200     0.0014     0.2094
    3    0.040   2564.50     0.0036                0.0008     0.0004     0.0038                0.6400     0.0032     0.0599
    4    0.060   2565.51     0.0047     0.0005     0.0013     0.0006     0.0053     9.8931     0.9600     0.0044     0.1854
    5    0.080   2566.51     0.0049     0.0005     0.0011     0.0008     0.0056    10.5108     1.2800     0.0043     0.1863
    6    0.100   2567.51     0.0063     0.0006     0.0021     0.0010     0.0063     9.8516     1.6000     0.0047    -0.1917
    7    0.120   2568.51     0.0050     0.0007     0.0042     0.0012     0.0065    13.0625     1.9200     0.0046     0.5275
    8    0.140   2569.51     0.0071     0.0008     0.0043     0.0014     0.0090    11.5188     2.2400     0.0068     0.4653
    9    0.160   2570.51     0.0084     0.0009     0.0049     0.0016     0.0104    10.6924     2.5600     0.0079     0.4011
   10    0.180   2571.52     0.0102     0.0010     0.0039     0.0018     0.0120    10.2248     2.8800     0.0091     0.2873
   11    0.200   2572.52     0.0107     0.0011     0.0039     0.0020     0.0123    10.1960     3.2000     0.0091     0.1919
   12    0.220   2573.52     0.0098     0.0012     0.0046     0.0022     0.0118    11.6991     3.5200     0.0083     0.3234
   13    0.240   2574.52     0.0111     0.0013     0.0046     0.0024     0.0129    11.7217     3.8400     0.0091     0.2014
   14    0.260   2575.52     0.0124     0.0013     0.0066     0.0026     0.0146    11.1652     4.1600     0.0104     0.2437
   15    0.280   2576.47     0.0113     0.0014     0.0093     0.0028     0.0149    12.6727     4.4800     0.0104     0.5567
   16    0.300   2577.52     0.0105     0.0014     0.0083     0.0030     0.0142    13.4361     4.8000     0.0094     0.6135
   17    0.320   2578.48     0.0112     0.0014     0.0076     0.0032     0.0144    12.7975     5.1200     0.0093     0.4727
   18    0.340   2579.48     0.0102     0.0015     0.0086     0.0034     0.0136    14.0951     5.4400     0.0081     0.5681
   19    0.360   2580.48     0.0093     0.0015     0.0102     0.0036     0.0134    16.5384     5.7600     0.0077     0.8130
   20    0.380   2581.48     0.0089     0.0016     0.0111     0.0038     0.0133    18.2009     6.0800     0.0072     0.9403
   21    0.400   2582.48     0.0091     0.0015     0.0110     0.0040     0.0138    17.1027     6.4000     0.0074     0.9900
   22    0.420   2583.48     0.0087     0.0015     0.0106     0.0042     0.0132    17.8132     6.7200     0.0065     1.0180
   23    0.440   2584.48     0.0075     0.0015     0.0107     0.0044     0.0118    20.2712     7.0400     0.0047     1.2476
   24    0.460   2585.49     0.0084     0.0015     0.0121     0.0046     0.0133    18.6438     7.3600     0.0059     1.2055
   25    0.480   2586.44     0.0090     0.0016     0.0131     0.0048     0.0143    18.2089     7.6800     0.0066     1.1955
   26    0.500   2587.44     0.0089     0.0016     0.0135     0.0050     0.0147    18.2392     8.0000     0.0067     1.2959
   27    0.520   2588.44     0.0101     0.0017     0.0133     0.0052     0.0158    16.8261     8.3200     0.0075     1.1329
   28    0.540   2589.44     0.0114     0.0018     0.0130     0.0054     0.0169    15.9571     8.6400     0.0083     0.9309
   29    0.560   2590.45     0.0117     0.0018     0.0122     0.0056     0.0170    16.1116     8.9600     0.0080     0.8654
   30    0.580   2591.45     0.0122     0.0019     0.0123     0.0058     0.0172    15.8611     9.2800     0.0079     0.7872
   31    0.600   2592.40     0.0116     0.0020     0.0122     0.0060     0.0169    16.0788     9.6000     0.0073     0.9000
   32    0.620   2593.40     0.0124     0.0021     0.0126     0.0062     0.0175    17.5157     9.9200     0.0076     0.7934
   33    0.640   2594.40     0.0128     0.0023     0.0134     0.0064     0.0183    18.9525    10.2400     0.0081     0.8347
   34    0.660   2595.35     0.0125     0.0022     0.0143     0.0066     0.0184    16.8467    10.5600     0.0079     0.9498
   35    0.680   2596.35     0.0137     0.0021     0.0142     0.0068     0.0197    15.3558    10.8800     0.0088     0.8568
   36    0.700   2599.35     0.0153     0.0020     0.0138     0.0070     0.0212    13.1044    11.2000     0.0100     0.7037
   37    0.720   2607.04     0.0144     0.0018     0.0135     0.0072     0.0201    11.5765    11.5200     0.0086     0.7728
   38    0.740   2614.73     0.0134     0.0017     0.0132     0.0074     0.0190    10.7513    11.8400     0.0072     0.8420
   39    0.760   2618.96     0.0132     0.0017     0.0149     0.0076     0.0193    12.7353    12.1600     0.0071     0.9650
   40    0.780   2620.01     0.0141     0.0017     0.0165     0.0078     0.0210    11.7932    12.4800     0.0085     1.0109
   41    0.800   2621.01     0.0142     0.0017     0.0166     0.0080     0.0213    12.3604    12.8000     0.0085     1.0300
   42    0.820   2621.92     0.0149     0.0019     0.0151     0.0082     0.0215    13.0464    13.1200     0.0084     0.8982
   43    0.840   2622.92     0.0140     0.0020     0.0146     0.0084     0.0202    14.0436    13.4400     0.0067     0.9210
   44    0.860   2623.93     0.0118     0.0020     0.0153     0.0086     0.0181    16.4893    13.7600     0.0043     1.4878
   45    0.880   2624.92     0.0115     0.0020     0.0163     0.0088     0.0181    17.8587    14.0800     0.0040     1.7393
   46    0.900   2625.88     0.0151     0.0019     0.0180     0.0090     0.0223    13.3269    14.4000     0.0079     1.0355
   47    0.920   2626.87     0.0156     0.0019     0.0216     0.0092     0.0241    11.8808    14.7200     0.0094     1.1693
   48    0.940   2627.84     0.0164     0.0018     0.0206     0.0094     0.0254    11.0749    15.0400     0.0104     1.1601
   49    0.960   2628.83     0.0191     0.0018     0.0218     0.0096     0.0279     9.5887    15.3600     0.0125     0.9065
   50    0.980   2629.83     0.0217     0.0018     0.0240     0.0098     0.0316     8.4305    15.6800     0.0160     0.8629
   51    1.000   2630.83     0.0227     0.0019     0.0208     0.0100     0.0318     8.7476    16.0000     0.0158     0.7359
   52    1.020   2631.80     0.0232     0.0020     0.0228     0.0102     0.0326     8.5875    16.3200     0.0163     0.7412
   53    1.040   2632.78     0.0234     0.0021     0.0229     0.0104     0.0330     8.7744    16.6400     0.0164     0.7671
   54    1.060   2633.73     0.0241     0.0021     0.0234     0.0106     0.0338     8.8433    16.9600     0.0169     0.7373
   55    1.080   2634.74     0.0257     0.0022     0.0246     0.0108     0.0357     8.7480    17.2800     0.0185     0.7156
   56    1.100   2635.74     0.0279     0.0022     0.0248     0.0110     0.0383     7.9354    17.6000     0.0207     0.6659
   57    1.120   2636.69     0.0278     0.0022     0.0262     0.0112     0.0387     8.1155    17.9200     0.0208     0.7108
   58    1.140   2637.69     0.0296     0.0023     0.0261     0.0114     0.0404     7.7872    18.2400     0.0222     0.6534
   59    1.160   2638.64     0.0293     0.0023     0.0288     0.0116     0.0411     7.6566    18.5600     0.0225     0.7321
   60    1.180   2639.63     0.0295     0.0023     0.0283     0.0118     0.0413     7.9712    18.8800     0.0224     0.7316
   61    1.200   2640.60     0.0292     0.0023     0.0295     0.0120     0.0412     7.9866    19.2000     0.0220     0.7506
   62    1.220   2641.59     0.0310     0.0025     0.0322     0.0122     0.0433     8.0946    19.5200     0.0238     0.7204
   63    1.240   2642.55     0.0323     0.0025     0.0351     0.0124     0.0465     7.6591    19.8400     0.0267     0.8023
   64    1.260   2643.55     0.0337     0.0023     0.0368     0.0126     0.0490     6.9927    20.1600     0.0288     0.8225
   65    1.280   2644.50     0.0356     0.0024     0.0359     0.0128     0.0512     6.7427    20.4800     0.0307     0.7932
   66    1.300   2645.50     0.0385     0.0026     0.0375     0.0130     0.0541     6.7766    20.8000     0.0333     0.7270
   67    1.320   2646.50     0.0390     0.0031     0.0397     0.0132     0.0553     7.9117    21.1200     0.0342     0.7480
   68    1.340   2647.46     0.0583     0.0033     0.0365     0.0134     0.0745     6.7538    21.4400     0.0531     0.4829
   69    1.360   2648.46     0.0553     0.0032     0.0344     0.0136     0.0698     5.7513    21.7600     0.0481     0.4359
   70    1.380   2649.46     0.0536     0.0033     0.0324     0.0138     0.0676     6.2079    22.0800     0.0455     0.4287
   71    1.400   2650.41     0.0530     0.0034     0.0354     0.0140     0.0667     6.1070    22.4000     0.0443     0.4225
   72    1.420   2651.41     0.0445     0.0032     0.0440     0.0142     0.0631     6.9991    22.7200     0.0404     0.7443
   73    1.440   2652.41     0.0378     0.0031     0.0472     0.0144     0.0580     7.4021    23.0400     0.0350     0.9652
   74    1.460   2653.37     0.0379     0.0031     0.0462     0.0146     0.0569     7.8116    23.3600     0.0336     0.9122
   75    1.480   2654.37     0.0363     0.0031     0.0491     0.0148     0.0567     8.2505    23.6800     0.0330     1.0226
   76    1.500   2655.37     0.0376     0.0030     0.0481     0.0150     0.0581     8.1691    24.0000     0.0341     0.9888
   77    1.520   2656.32     0.0388     0.0031     0.0473     0.0152     0.0586     8.2283    24.3200     0.0343     0.9308
   78    1.540   2661.79     0.0430     0.0032     0.0457     0.0154     0.0627     7.6399    24.6400     0.0380     0.8276
   79    1.560   2676.71     0.0451     0.0032     0.0422     0.0156     0.0634     7.5978    24.9600     0.0384     0.7261
   80    1.580   2691.64     0.0473     0.0032     0.0391     0.0158     0.0641     7.6587    25.2800     0.0388     0.6245
   81    1.600   2697.21     0.0489     0.0033     0.0442     0.0160     0.0671     6.8094    25.6000     0.0415     0.6562
   82    1.620   2698.18     0.0510     0.0032     0.0467     0.0162     0.0704     6.4211    25.9200     0.0445     0.6717
   83    1.640   2699.16     0.0525     0.0034     0.0454     0.0164     0.0719     6.5425    26.2400     0.0456     0.6491
   84    1.660   2700.13     0.0554     0.0035     0.0452     0.0166     0.0743     6.4384    26.5600     0.0477     0.5938
   85    1.680   2701.12     0.0563     0.0038     0.0453     0.0168     0.0751     6.8165    26.8800     0.0483     0.5827
   86    1.700   2702.08     0.0600     0.0042     0.0457     0.0170     0.0791     7.1029    27.2000     0.0519     0.5523
   87    1.720   2703.03     0.0672     0.0044     0.0451     0.0172     0.0857     6.9094    27.5200     0.0582     0.4628
   88    1.740   2704.03     0.0731     0.0045     0.0423     0.0174     0.0910     6.3429    27.8400     0.0631     0.3970
   89    1.760   2704.94     0.0765     0.0048     0.0360     0.0176     0.0928     6.3262    28.1600     0.0646     0.3277
   90    1.780   2705.82     0.0776     0.0052     0.0336     0.0178     0.0918     6.6118    28.4800     0.0633     0.2523
   91    1.800   2706.74     0.0780     0.0055     0.0359     0.0180     0.0925     7.0162    28.8000     0.0637     0.2591
   92    1.820   2707.69     0.0781     0.0059     0.0395     0.0182     0.0940     7.5780    29.1200     0.0649     0.3020
   93    1.840   2708.69     0.0815     0.0060     0.0380     0.0184     0.0981     7.5004    29.4400     0.0686     0.3078
   94    1.860   2709.68     0.0827     0.0063     0.0345     0.0186     0.0984     7.7040    29.7600     0.0686     0.2712
   95    1.880   2710.65     0.0845     0.0069     0.0268     0.0188     0.0965     8.1864    30.0800     0.0664     0.1494
   96    1.900   2711.65     0.0853     0.0072     0.0233     0.0190     0.0949     8.5966    30.4000     0.0645     0.0623
   97    1.920   2712.64     0.0849     0.0076     0.0262     0.0192     0.0954     9.0030    30.7200     0.0647     0.0912
   98    1.940   2713.64     0.0835     0.0077     0.0255     0.0194     0.0946     9.2177    31.0400     0.0636     0.1114
   99    1.960   2714.64     0.0838     0.0075     0.0318     0.0196     0.0969     8.9090    31.3600     0.0655     0.1780
  100    1.980   2715.60     0.0851     0.0073     0.0348     0.0198     0.1000     8.6335    31.6800     0.0683     0.2301
  101    2.000   2717.48     0.0833     0.0072     0.0390     0.0200     0.0990     8.5800    32.0000     0.0670     0.2598
  102    2.020   2719.94     0.0820     0.0067     0.0436     0.0202     0.0997     7.9403    32.3200     0.0674     0.3230
  103    2.040   2722.40     0.0808     0.0062     0.0464     0.0204     0.1003     7.3811    32.6400     0.0677     0.3863
  104    2.060   2723.30     0.0819     0.0060     0.0468     0.0206     0.1015     7.3489    32.9600     0.0685     0.3805
  105    2.080   2724.21     0.0845     0.0057     0.0426     0.0208     0.1032     6.8151    33.2800     0.0699     0.3384
  106    2.100   2725.19     0.0851     0.0057     0.0443     0.0210     0.1031     6.7566    33.6000     0.0695     0.3120
  107    2.120   2726.16     0.0867     0.0057     0.0382     0.0212     0.1049     6.6651    33.9200     0.0710     0.3100
  108    2.140   2727.12     0.0899     0.0056     0.0407     0.0214     0.1069     6.3050    34.2400     0.0727     0.2630
  109    2.160   2728.11     0.0937     0.0058     0.0398     0.0216     0.1100     6.3150    34.5600     0.0755     0.2276
  110    2.180   2729.06     0.0950     0.0060     0.0372     0.0218     0.1113     6.3483    34.8800     0.0764     0.2219
  111    2.200   2730.06     0.0950     0.0061     0.0365     0.0220     0.1087     6.4263    35.2000     0.0735     0.1439
  112    2.220   2731.02     0.0932     0.0062     0.0351     0.0222     0.1087     6.6325    35.5200     0.0732     0.2022
  113    2.240   2732.02     0.0936     0.0062     0.0344     0.0224     0.1080     6.5798    35.8400     0.0721     0.1629
  114    2.260   2732.97     0.0920     0.0060     0.0333     0.0226     0.1065     6.5099    36.1600     0.0703     0.1686
  115    2.280   2733.93     0.0895     0.0060     0.0358     0.0228     0.1039     6.6279    36.4800     0.0674     0.1697
  116    2.300   2734.93     0.0882     0.0057     0.0402     0.0230     0.1043     6.5054    36.8000     0.0675     0.2273
  117    2.320   2735.93     0.0859     0.0054     0.0474     0.0232     0.1045     6.1668    37.1200     0.0674     0.3114
  118    2.340   2736.89     0.0843     0.0053     0.0554     0.0234     0.1067     6.2636    37.4400     0.0693     0.4327
  119    2.360   2737.85     0.0835     0.0051     0.0559     0.0236     0.1070     6.1298    37.7600     0.0692     0.4654
  120    2.380   2738.80     0.0807     0.0050     0.0564     0.0238     0.1045     6.1442    38.0800     0.0664     0.4941
  121    2.400   2739.78     0.0763     0.0051     0.0540     0.0240     0.0994     6.5900    38.4000     0.0610     0.5092
  122    2.420   2740.79     0.0746     0.0050     0.0513     0.0242     0.0966     6.7232    38.7200     0.0579     0.4857
  123    2.440   2741.79     0.0738     0.0051     0.0495     0.0244     0.0945     6.8561    39.0400     0.0555     0.4506
  124    2.460   2742.74     0.0717     0.0054     0.0512     0.0246     0.0929     7.5048    39.3600     0.0536     0.4859
  125    2.480   2743.74     0.0701     0.0052     0.0462     0.0248     0.0907     7.3252    39.6800     0.0510     0.4725
  126    2.500   2744.69     0.0709     0.0052     0.0392     0.0250     0.0897     7.3291    40.0000     0.0497     0.3946
  127    2.520   2745.68     0.0760     0.0051     0.0277     0.0252     0.0886     6.8311    40.3200     0.0482     0.0954
  128    2.540   2746.64     0.0797     0.0051     0.0346     0.0254     0.0923     6.3839    40.6400     0.0517     0.0890
  129    2.560   2747.63     0.0752     0.0049     0.0513     0.0256     0.0949     6.4176    40.9600     0.0540     0.3958
  130    2.580   2748.60     0.0713     0.0049     0.0580     0.0258     0.0949     6.8983    41.2800     0.0536     0.5674
  131    2.600   2749.59     0.0685     0.0050     0.0594     0.0260     0.0934     7.2656    41.6000     0.0518     0.6402
  132    2.620   2750.59     0.0680     0.0049     0.0602     0.0262     0.0934     7.1264    41.9200     0.0515     0.6655
  133    2.640   2751.55     0.0672     0.0047     0.0618     0.0264     0.0931     7.0119    42.2400     0.0509     0.6950
  134    2.660   2752.50     0.0670     0.0048     0.0584     0.0266     0.0921     7.2387    42.5600     0.0495     0.6673
