

 Program UNIPLOT                         version 05.36.02
 _______________
 (c) Fugro Netherlands Marine, Nootdorp, The Netherlands


 ASCII representation of data plotted on a graph.

 This ASCII file presents data interpolated to values per fixed depth interval.
 The data are corrected for the depth-offset differences between the various 
 transducers in the penetrometer.

 The records at the start of penetration may include no values or anomalous
 values where a depth offset implies incomplete penetration of a particular
 sensor into the ground.

 The records at the end of penetration may include no values for data channels
 where the transducer did not reach this depth.

 The reference level for test values is (1) the ground surface for onshore tests and (2) the seafloor for nearshore and offshore tests.

 UNICAS data file          : CPT-2018.000                            
 Output using command file : PlotASCII.cmd

 ASCII file created at : date          :21-Apr-2022
                         time          :15:40:03
 Project number                        :20024805                                                                                            
 Date of testing                       :14-Apr-2022                                                                                         
 Location                              :Hong Kong Offshore Wind Farm Project                                                                
 Test name                             :CPT-2018
 Penetrometer                          :F7.5CKE2HAW2/B/3342
 Serial no                             :1701-3342

 Table description:
 Column ID                             :Parameter name
 ___________________________________________________________________________________
 Rec                                   :Record ID, Record ID [-]
 Depth                                 :Depth, Depth [m]
 Time                                  :Time, Time [s]
 Cone                                  :Cone Resistance, Cone Resistance [MPa]
 Friction                              :Sleeve Friction, Sleeve Friction [MPa]
 Pore 2                                :Porewater Pressure, Porewater Pressure at Shoulder [MPa]
 HydroPress                            :Hydrostatic Pressure, Hydrostatic Pressure [MPa]
 qt                                    :Total Cone Resistance, Total Cone Resistance [MPa]
 Fric_ratio                            :Friction Ratio, Friction Ratio [%]
 SigmaVert                             :Vertical stress, Vertical stress [kPa] as specified in ground model
 Qnet                                  :Net Cone Resistance, Net Cone Resistance [MPa], unit weight as specified in ground model
 Bq                                    :Porewater Pressure Ratio, Porewater Pressure Ratio [-], unit weight as specified in ground model


 Data table:
  Rec    Depth      Time       Cone   Friction     Pore 2 HydroPress         qt Fric_ratio  SigmaVert       Qnet         Bq
   No        m         s        MPa        MPa        MPa        MPa        MPa          %        kPa        MPa          -
    1    0.000   2633.13     0.0000                           0.0000    -0.0009                0.0000    -0.0009     2.3810
    2    0.020   2634.08     0.0029               -0.0023     0.0002     0.0020                0.3200     0.0017    -1.5301
    3    0.040   2635.08     0.0046               -0.0020     0.0004     0.0037                0.6400     0.0030    -0.8648
    4    0.060   2636.04     0.0007     0.0004    -0.0016     0.0006     0.0000    35.3456     0.9600    -0.0009     0.9199
    5    0.080   2636.99     0.0012     0.0004    -0.0013     0.0008     0.0006   206.1401     1.2800    -0.0007     3.4209
    6    0.100   2637.94     0.0052     0.0002    -0.0005     0.0010     0.0049     5.0586     1.6000     0.0033    -0.6776
    7    0.120   2638.90     0.0027     0.0001     0.0001     0.0012     0.0027     3.4285     1.9200     0.0008    -1.9599
    8    0.140   2639.90     0.0043     0.0002     0.0008     0.0014     0.0045     6.3099     2.2400     0.0023    -0.3403
    9    0.160   2640.85     0.0047     0.0000     0.0008     0.0016     0.0050     0.5677     2.5600     0.0024    -0.4292
   10    0.180   2641.78     0.0049     0.0001     0.0008     0.0018     0.0053     2.1418     2.8800     0.0024    -0.5192
   11    0.200   2642.74     0.0034     0.0005     0.0006     0.0020     0.0036    16.3881     3.2000     0.0004     7.2107
   12    0.220   2643.71     0.0064     0.0005     0.0004     0.0022     0.0066     9.2269     3.5200     0.0030    -0.5845
   13    0.240   2644.67     0.0030     0.0003     0.0000     0.0024     0.0029     7.1980     3.8400    -0.0009     2.3031
   14    0.260   2645.67     0.0077     0.0003     0.0002     0.0026     0.0077     4.7055     4.1600     0.0035    -0.7355
   15    0.280   2646.64     0.0070     0.0003     0.0008     0.0028     0.0073     5.4225     4.4800     0.0028    -0.7886
   16    0.300   2647.61     0.0052     0.0002     0.0016     0.0030     0.0058     6.1396     4.8000     0.0010     0.3089
   17    0.320   2648.55     0.0050     0.0002     0.0020     0.0032     0.0058     5.3226     5.1200     0.0007    -0.8523
   18    0.340   2649.50     0.0040     0.0003     0.0025     0.0034     0.0050     8.8946     5.4400    -0.0004           
   19    0.360   2650.44     0.0058     0.0001     0.0024     0.0036     0.0068     1.3838     5.7600     0.0011    -1.5978
   20    0.380   2671.84     0.0052     0.0002     0.0022     0.0038     0.0061     4.1593     6.0800     0.0001    -1.2034
   21    0.400   2699.12     0.0050     0.0005     0.0020     0.0040     0.0059     8.5316     6.4000    -0.0005     0.3409
   22    0.420   2726.40     0.0049     0.0003     0.0018     0.0042     0.0057     4.7798     6.7200    -0.0011     1.8853
   23    0.440   2730.49     0.0062     0.0005     0.0019     0.0044     0.0070     7.8035     7.0400    -0.0001    -1.9259
   24    0.460   2731.44     0.0055     0.0002     0.0024     0.0046     0.0064     4.6943     7.3600    -0.0009     2.9891
   25    0.480   2732.42     0.0060     0.0002     0.0033     0.0048     0.0072     3.9995     7.6800    -0.0004     4.4151
   26    0.500   2733.38     0.0057     0.0003     0.0043     0.0050     0.0074     6.2356     8.0000    -0.0006           
   27    0.520   2734.83     0.0054     0.0007     0.0038     0.0052     0.0071    12.1702     8.3200    -0.0012     0.7955
   28    0.540   2738.40     0.0043     0.0006     0.0024     0.0054     0.0055    10.2404     8.6400    -0.0031     0.8030
   29    0.560   2741.75     0.0036     0.0005     0.0017     0.0056     0.0043    13.3948     8.9600    -0.0046     0.8644
   30    0.580   2742.74     0.0057     0.0007     0.0030     0.0058     0.0068    15.3629     9.2800    -0.0025     1.4233
   31    0.600   2743.67     0.0060     0.0005     0.0045     0.0060     0.0075     7.5463     9.6000    -0.0021     1.1728
   32    0.620   2744.63     0.0045     0.0005     0.0064     0.0062     0.0070     7.5344     9.9200    -0.0029     0.0658
   33    0.640   2745.57     0.0073     0.0003     0.0075     0.0064     0.0102    10.8379    10.2400     0.0000     0.9389
   34    0.660   2746.52     0.0081     0.0002     0.0082     0.0066     0.0115     2.6783    10.5600     0.0009           
   35    0.680   2747.48     0.0051     0.0004     0.0077     0.0068     0.0085     6.1295    10.8800    -0.0024    -0.7463
   36    0.700   2748.46     0.0090     0.0004     0.0066     0.0070     0.0119     5.3502    11.2000     0.0007    -0.1493
   37    0.720   2749.41     0.0045     0.0003     0.0053     0.0072     0.0069     5.7665    11.5200    -0.0046     0.2849
   38    0.740   2750.33     0.0066     0.0004     0.0044     0.0074     0.0085     6.8801    11.8400    -0.0033     0.9895
   39    0.760   2751.32     0.0057     0.0006     0.0037     0.0076     0.0072    10.8171    12.1600    -0.0049     0.7959
   40    0.780   2752.26     0.0071     0.0006     0.0039     0.0078     0.0086     8.5765    12.4800    -0.0038     1.0970
   41    0.800   2753.21     0.0067     0.0007     0.0042     0.0080     0.0083    10.4665    12.8000    -0.0045     0.9123
   42    0.820   2754.18     0.0052     0.0006     0.0054     0.0082     0.0074     9.4947    13.1200    -0.0058    -1.4330
   43    0.840   2755.14     0.0150     0.0006     0.0068     0.0084     0.0177     5.2419    13.4400     0.0043    -0.4818
   44    0.860   2756.09     0.0177     0.0008     0.0076     0.0086     0.0209     4.8034    13.7600     0.0071    -0.1646
   45    0.880   2757.04     0.0182     0.0009     0.0082     0.0088     0.0216     4.7367    14.0800     0.0075    -0.0897
   46    0.900   2758.01     0.0218     0.0012     0.0079     0.0090     0.0251     5.7105    14.4000     0.0107    -0.1097
   47    0.920   2758.92     0.0226     0.0009     0.0076     0.0092     0.0259     4.3661    14.7200     0.0111    -0.1196
   48    0.940   2759.91     0.0218     0.0012     0.0066     0.0094     0.0247     5.3809    15.0400     0.0096    -0.2575
   49    0.960   2760.86     0.0199     0.0011     0.0051     0.0096     0.0224     5.1624    15.3600     0.0071    -0.5264
   50    0.980   2761.82     0.0182     0.0013     0.0039     0.0098     0.0200     6.8151    15.6800     0.0044    -1.4339
   51    1.000   2762.76     0.0170     0.0010     0.0063     0.0100     0.0196     6.0260    16.0000     0.0036    -1.5279
   52    1.020   2763.70     0.0185     0.0014     0.0071     0.0102     0.0210     8.9601    16.3200     0.0047    -0.8812
   53    1.040   2764.65     0.0171     0.0012     0.0089     0.0104     0.0206     6.7250    16.6400     0.0039    -0.5361
   54    1.060   2765.60     0.0215     0.0013     0.0096     0.0106     0.0254     6.0255    16.9600     0.0084    -0.1518
   55    1.080   2766.58     0.0224     0.0012     0.0096     0.0108     0.0265     5.1428    17.2800     0.0092    -0.1057
   56    1.100   2767.51     0.0269     0.0011     0.0104     0.0110     0.0311     4.6980    17.6000     0.0135    -0.0886
   57    1.120   2768.46     0.0305     0.0015     0.0111     0.0112     0.0350     5.3599    17.9200     0.0171    -0.0259
   58    1.140   2769.40     0.0366     0.0020     0.0139     0.0114     0.0421     5.8677    18.2400     0.0239     0.0701
   59    1.160   2770.33     0.0440     0.0020     0.0113     0.0116     0.0489     4.7679    18.5600     0.0304     0.0017
   60    1.180   2771.30     0.0481     0.0025     0.0105     0.0118     0.0523     5.4178    18.8800     0.0335    -0.0481
   61    1.200   2772.26     0.0544     0.0026     0.0036     0.0120     0.0569     5.0764    19.2000     0.0377    -0.1548
   62    1.220   2773.20     0.0550     0.0030     0.0034     0.0122     0.0563     5.2249    19.5200     0.0368    -0.2488
   63    1.240   2774.12     0.0621     0.0029     0.0095     0.0124     0.0650     4.8182    19.8400     0.0452    -0.1222
   64    1.260   2775.10     0.0652     0.0030     0.0055     0.0126     0.0678     4.8443    20.1600     0.0476    -0.1344
   65    1.280   2776.05     0.0678     0.0027     0.0070     0.0128     0.0706     3.8638    20.4800     0.0501    -0.1257
   66    1.300   2777.01     0.0632     0.0026     0.0043     0.0130     0.0655     4.0390    20.8000     0.0447    -0.1671
   67    1.320   2777.96     0.0584     0.0029     0.0041     0.0132     0.0597     4.7717    21.1200     0.0386    -0.2641
   68    1.340   2778.94     0.0565     0.0027     0.0104     0.0134     0.0603     4.9159    21.4400     0.0389    -0.1125
   69    1.360   2779.89     0.0590     0.0026     0.0138     0.0136     0.0640     4.3176    21.7600     0.0423    -0.0370
   70    1.380   2780.84     0.0586     0.0027     0.0191     0.0138     0.0663     4.6348    22.0800     0.0442     0.0982
   71    1.400   2781.79     0.0582     0.0026     0.0141     0.0140     0.0642     4.4940    22.4000     0.0418     0.0081
   72    1.420   2782.77     0.0531     0.0028     0.0197     0.0142     0.0607     5.0027    22.7200     0.0380     0.1017
   73    1.440   2783.72     0.0565     0.0027     0.0218     0.0144     0.0655     5.1897    23.0400     0.0425     0.1661
   74    1.460   2784.66     0.0616     0.0026     0.0248     0.0146     0.0717     4.2698    23.3600     0.0484     0.1963
   75    1.480   2785.62     0.0650     0.0037     0.0242     0.0148     0.0760     5.6151    23.6800     0.0523     0.2140
   76    1.500   2786.54     0.0743     0.0042     0.0201     0.0150     0.0835     6.0043    24.0000     0.0595     0.1165
   77    1.520   2787.54     0.0912     0.0045     0.0164     0.0152     0.0975     5.5123    24.3200     0.0732    -0.0020
   78    1.540   2788.45     0.0961     0.0049     0.0104     0.0154     0.1024     5.2833    24.6400     0.0778    -0.0021
   79    1.560   2789.40     0.0989     0.0052     0.0045     0.0156     0.1010     5.1734    24.9600     0.0760    -0.1417
   80    1.580   2790.39     0.0967     0.0054     0.0085     0.0158     0.0991     5.4982    25.2800     0.0738    -0.1352
   81    1.600   2791.33     0.0926     0.0057     0.0187     0.0160     0.0994     6.1347    25.6000     0.0738     0.0001
   82    1.620   2793.02     0.0900     0.0057     0.0200     0.0162     0.0984     6.2468    25.9200     0.0725     0.0520
   83    1.640   2798.32     0.0827     0.0057     0.0202     0.0164     0.0912     6.2547    26.2400     0.0649     0.0583
   84    1.660   2803.62     0.0754     0.0051     0.0204     0.0166     0.0839     5.5500    26.5600     0.0574     0.0646
   85    1.680   2805.81     0.0739     0.0052     0.0197     0.0168     0.0825     6.8944    26.8800     0.0556     0.0635
   86    1.700   2806.79     0.0723     0.0053     0.0208     0.0170     0.0809     7.3881    27.2000     0.0537     0.0645
   87    1.720   2807.75     0.0647     0.0055     0.0218     0.0172     0.0737     8.2089    27.5200     0.0461     0.0909
   88    1.740   2808.70     0.0623     0.0048     0.0247     0.0174     0.0724     7.4455    27.8400     0.0445     0.1474
   89    1.760   2809.65     0.0618     0.0049     0.0254     0.0176     0.0730     7.6834    28.1600     0.0448     0.2007
   90    1.780   2810.61     0.0621     0.0045     0.0310     0.0178     0.0743     7.0004    28.4800     0.0459     0.2457
   91    1.800   2811.53     0.0645     0.0044     0.0356     0.0180     0.0789     7.0718    28.8000     0.0501     0.3260
   92    1.820   2812.54     0.0587     0.0038     0.0381     0.0182     0.0746     6.5136    29.1200     0.0455     0.4331
   93    1.840   2813.50     0.0613     0.0043     0.0378     0.0184     0.0772     7.4014    29.4400     0.0477     0.4076
   94    1.860   2814.45     0.0605     0.0042     0.0361     0.0186     0.0764     6.5447    29.7600     0.0466     0.4125
   95    1.880   2815.38     0.0627     0.0041     0.0280     0.0188     0.0752     6.4651    30.0800     0.0451     0.2388
   96    1.900   2816.27     0.0587     0.0042     0.0308     0.0190     0.0712     7.1316    30.4000     0.0408     0.2640
   97    1.920   2817.11     0.0643     0.0043     0.0356     0.0192     0.0785     6.7382    30.7200     0.0478     0.3066
   98    1.940   2817.86     0.0646     0.0045     0.0403     0.0194     0.0809     6.9333    31.0400     0.0498     0.3881
   99    1.960   2818.67     0.0688     0.0045     0.0419     0.0196     0.0865     6.7604    31.3600     0.0551     0.4091
  100    1.980   2819.67     0.0765     0.0046     0.0372     0.0198     0.0927     6.1215    31.6800     0.0611     0.3094
  101    2.000   2820.60     0.0769     0.0045     0.0293     0.0200     0.0903     5.9209    32.0000     0.0583     0.2050
  102    2.020   2821.56     0.0754     0.0053     0.0327     0.0202     0.0882     6.9543    32.3200     0.0558     0.1816
  103    2.040   2822.51     0.0760     0.0048     0.0391     0.0204     0.0918     6.4198    32.6400     0.0591     0.2886
  104    2.060   2823.45     0.0790     0.0049     0.0405     0.0206     0.0960     6.3202    32.9600     0.0630     0.3143
  105    2.080   2824.44     0.0817     0.0053     0.0381     0.0208     0.0982     6.7977    33.2800     0.0649     0.2848
  106    2.100   2825.39     0.0891     0.0059     0.0390     0.0210     0.1050     6.7905    33.6000     0.0714     0.2374
  107    2.120   2826.32     0.0913     0.0051     0.0434     0.0212     0.1090     5.5612    33.9200     0.0750     0.2784
  108    2.140   2827.28     0.0990     0.0052     0.0254     0.0214     0.1122     5.4586    34.2400     0.0779     0.1270
  109    2.160   2828.23     0.1023     0.0050     0.0210     0.0216     0.1117     4.9427    34.5600     0.0771     0.0078
  110    2.180   2829.18     0.1072     0.0052     0.0290     0.0218     0.1182     4.9315    34.8800     0.0833     0.0522
  111    2.200   2830.14     0.1037     0.0052     0.0376     0.0220     0.1187     5.1537    35.2000     0.0835     0.1643
  112    2.220   2831.07     0.0878     0.0051     0.0187     0.0222     0.0980     5.5851    35.5200     0.0625     0.0268
  113    2.240   2832.02     0.0787     0.0051     0.0182     0.0224     0.0859     6.1971    35.8400     0.0501    -0.1011
  114    2.260   2832.98     0.0799     0.0056     0.0192     0.0226     0.0879     7.2735    36.1600     0.0517    -0.0707
  115    2.280   2833.94     0.0879     0.0055     0.0252     0.0228     0.0971     6.4289    36.4800     0.0606    -0.0152
  116    2.300   2837.47     0.0938     0.0053     0.0335     0.0230     0.1069     5.8257    36.8000     0.0701     0.1168
  117    2.320   2848.10     0.0921     0.0049     0.0399     0.0232     0.1080     5.2366    37.1200     0.0709     0.2032
  118    2.340   2858.72     0.0905     0.0046     0.0459     0.0234     0.1090     4.9551    37.4400     0.0716     0.2895
  119    2.360   2862.43     0.0907     0.0045     0.0523     0.0236     0.1120     5.5362    37.7600     0.0742     0.3637
  120    2.380   2878.44     0.0958     0.0045     0.0548     0.0238     0.1184     7.0817    38.0800     0.0804     0.3750
  121    2.400   2889.53     0.0973     0.0044     0.0563     0.0240     0.1211     4.4217    38.4000     0.0827     0.3947
  122    2.420   2890.47     0.1054     0.0041     0.0531     0.0242     0.1280     4.0628    38.7200     0.0892     0.3320
  123    2.440   2891.45     0.1133     0.0041     0.0515     0.0244     0.1353     3.6785    39.0400     0.0962     0.2888
  124    2.460   2892.40     0.1069     0.0040     0.0553     0.0246     0.1293     3.6435    39.3600     0.0899     0.3180
  125    2.480   2893.33     0.0999     0.0039     0.0605     0.0248     0.1245     3.8054    39.6800     0.0848     0.3981
  126    2.500   2894.30     0.0947     0.0032     0.0669     0.0250     0.1219     3.2941    40.0000     0.0819     0.4852
  127    2.520   2895.24     0.0951     0.0033     0.0676     0.0252     0.1241     3.5418    40.3200     0.0838     0.5242
  128    2.540   2896.16     0.1034     0.0031     0.0685     0.0254     0.1324     3.0568    40.6400     0.0918     0.4764
  129    2.560   2897.14     0.1140     0.0031     0.0691     0.0256     0.1430     2.8563    40.9600     0.1021     0.4261
  130    2.580   2898.10     0.1173     0.0032     0.0696     0.0258     0.1465     2.8568    41.2800     0.1052     0.4163
  131    2.600   2899.05     0.1175     0.0035     0.0661     0.0260     0.1460     2.9755    41.6000     0.1044     0.4016
  132    2.620   2899.97     0.1208     0.0041     0.0590     0.0262     0.1465     3.3512    41.9200     0.1046     0.3344
  133    2.640   2900.91     0.1197     0.0044     0.0595     0.0264     0.1443     3.6387    42.2400     0.1021     0.3169
  134    2.660   2901.85     0.1200     0.0045     0.0534     0.0266     0.1436     3.7812    42.5600     0.1011     0.2943
