

 Program UNIPLOT                         version 05.36.02
 _______________
 (c) Fugro Netherlands Marine, Nootdorp, The Netherlands


 ASCII representation of data plotted on a graph.

 This ASCII file presents data interpolated to values per fixed depth interval.
 The data are corrected for the depth-offset differences between the various 
 transducers in the penetrometer.

 The records at the start of penetration may include no values or anomalous
 values where a depth offset implies incomplete penetration of a particular
 sensor into the ground.

 The records at the end of penetration may include no values for data channels
 where the transducer did not reach this depth.

 The reference level for test values is (1) the ground surface for onshore tests and (2) the seafloor for nearshore and offshore tests.

 UNICAS data file          : CPT-2021.000                            
 Output using command file : PlotASCII.cmd

 ASCII file created at : date          :23-Mar-2022
                         time          :11:54:00
 Project number                        :20024805
 Date of testing                       :22-Mar-2022
 Location                              :Hong Kong Offshore Wind Farm Project
 Test name                             :CPT-2021
 Penetrometer                          :F7.5CKE2HAW2/B/3342
 Serial no                             :1701-3342

 Table description:
 Column ID                             :Parameter name
 ___________________________________________________________________________________
 Rec                                   :Record ID, Record ID [-]
 Depth                                 :Depth, Depth [m]
 Time                                  :Time, Time [s]
 Cone                                  :Cone Resistance, Cone Resistance [MPa]
 Friction                              :Sleeve Friction, Sleeve Friction [MPa]
 Pore 2                                :Porewater Pressure, Porewater Pressure at Shoulder [MPa]
 HydroPress                            :Hydrostatic Pressure, Hydrostatic Pressure [MPa]
 qt                                    :Total Cone Resistance, Total Cone Resistance [MPa]
 Fric_ratio                            :Friction Ratio, Friction Ratio [%]
 SigmaVert                             :Vertical stress, Vertical stress [kPa] as specified in ground model
 Qnet                                  :Net Cone Resistance, Net Cone Resistance [MPa], unit weight as specified in ground model
 Bq                                    :Porewater Pressure Ratio, Porewater Pressure Ratio [-], unit weight as specified in ground model


 Data table:
  Rec    Depth      Time       Cone   Friction     Pore 2 HydroPress         qt Fric_ratio  SigmaVert       Qnet         Bq
   No        m         s        MPa        MPa        MPa        MPa        MPa          %        kPa        MPa          -
    1    0.000   2431.50     0.0000                           0.0000     0.0000                0.0000     0.0000           
    2    0.020   2432.55     0.0030               -0.0024     0.0002     0.0022                0.3200     0.0019    -1.1224
    3    0.040   2433.64     0.0066               -0.0068     0.0004     0.0047                0.6400     0.0041    -1.2279
    4    0.060   2460.04     0.0464     0.0024    -0.0136     0.0006     0.0417    37.6167     0.9600     0.0407    -0.8209
    5    0.080   2486.43     0.0863     0.0031    -0.0205     0.0008     0.0787    49.3211     1.2800     0.0774    -0.4139
    6    0.100   2498.56     0.1574     0.0029    -0.0226     0.0010     0.1476     2.6023     1.6000     0.1460    -0.1664
    7    0.120   2499.55     0.1803     0.0034    -0.0080     0.0012     0.1756     2.1159     1.9200     0.1736    -0.0714
    8    0.140   2502.26     0.0260     0.0039    -0.0009     0.0014     0.0256    17.2954     2.2400     0.0233    -0.1309
    9    0.160   2505.65     0.0413     0.0041    -0.0015     0.0016     0.0405     9.7277     2.5600     0.0380    -0.0917
   10    0.180   2506.66     0.0616     0.0039    -0.0049     0.0018     0.0590     8.9767     2.8800     0.0562    -0.1424
   11    0.200   2507.69     0.0370     0.0028    -0.0027     0.0020     0.0351     5.4563     3.2000     0.0319    -0.2093
   12    0.220   2508.76     0.0302     0.0028    -0.0036     0.0022     0.0294     9.4615     3.5200     0.0259    -0.1684
   13    0.240   2509.76     0.0359     0.0028    -0.0119     0.0024     0.0311     7.6227     3.8400     0.0272    -0.5183
   14    0.260   2510.78     0.0214     0.0030    -0.0094     0.0026     0.0170    13.6900     4.1600     0.0128    -1.0515
   15    0.280   2511.77     0.0168     0.0031    -0.0049     0.0028     0.0142    18.7025     4.4800     0.0098    -0.9136
   16    0.300   2512.81     0.0201     0.0029     0.0000     0.0030     0.0195    14.3867     4.8000     0.0147    -0.2940
   17    0.320   2513.80     0.0250     0.0028     0.0001     0.0032     0.0251    11.8119     5.1200     0.0200    -0.1405
   18    0.340   2514.81     0.0288     0.0026    -0.0015     0.0034     0.0285     8.9698     5.4400     0.0230    -0.1824
   19    0.360   2515.79     0.0197     0.0026    -0.0007     0.0036     0.0192    14.2716     5.7600     0.0134    -0.3829
   20    0.380   2516.79     0.0168     0.0026    -0.0015     0.0038     0.0167    15.0882     6.0800     0.0106    -0.4249
   21    0.400   2517.82     0.0112     0.0025    -0.0058     0.0040     0.0086    21.8586     6.4000     0.0022   -20.8872
   22    0.420   2518.85     0.0095     0.0024     0.0055     0.0042     0.0109    26.5147     6.7200     0.0041    -0.7076
   23    0.440   2519.83     0.0124     0.0025     0.0069     0.0044     0.0152    21.2035     7.0400     0.0082     0.2996
   24    0.460   2520.81     0.0168     0.0025     0.0072     0.0046     0.0199    14.7402     7.3600     0.0125     0.2267
   25    0.480   2521.83     0.0188     0.0029     0.0057     0.0048     0.0213    15.4021     7.6800     0.0136     0.0801
   26    0.500   2522.89     0.0167     0.0028     0.0047     0.0050     0.0191    16.6019     8.0000     0.0111     0.0737
   27    0.520   2523.86     0.0154     0.0030     0.0026     0.0052     0.0166    19.3272     8.3200     0.0083    -0.2955
   28    0.540   2524.84     0.0175     0.0031     0.0022     0.0054     0.0190    18.6621     8.6400     0.0103    -0.1811
   29    0.560   2525.85     0.0166     0.0032     0.0054     0.0056     0.0179    19.9312     8.9600     0.0089    -0.3060
   30    0.580   2526.85     0.0161     0.0032     0.0047     0.0058     0.0185    21.6636     9.2800     0.0092    -0.0174
   31    0.600   2527.85     0.0143     0.0031     0.0023     0.0060     0.0146    23.3961     9.6000     0.0050    -1.4115
   32    0.620   2528.91     0.0124     0.0030     0.0051     0.0062     0.0142    24.4366     9.9200     0.0042    -0.4980
   33    0.640   2529.94     0.0112     0.0030     0.0091     0.0064     0.0144    27.1544    10.2400     0.0042     0.3292
   34    0.660   2530.90     0.0123     0.0028     0.0126     0.0066     0.0172    22.6330    10.5600     0.0067     0.7777
   35    0.680   2533.80     0.0138     0.0027     0.0139     0.0068     0.0195    21.7574    10.8800     0.0086     0.7947
   36    0.700   2536.91     0.0155     0.0029     0.0153     0.0070     0.0218    23.7707    11.2000     0.0106     0.7563
   37    0.720   2540.02     0.0173     0.0033     0.0168     0.0072     0.0240    22.1441    11.5200     0.0125     0.7178
   38    0.740   2541.38     0.0179     0.0035     0.0183     0.0074     0.0254    19.4393    11.8400     0.0136     0.7790
   39    0.760   2542.34     0.0197     0.0034     0.0198     0.0076     0.0276    17.3814    12.1600     0.0155     0.7366
   40    0.780   2543.37     0.0255     0.0041     0.0207     0.0078     0.0344    16.6965    12.4800     0.0219     0.6211
   41    0.800   2544.35     0.0578     0.0040     0.0177     0.0080     0.0657     7.6897    12.8000     0.0529     0.2183
   42    0.820   2545.40     0.1291     0.0040     0.0095     0.0082     0.1349     3.4148    13.1200     0.1217     0.0471
   43    0.840   2546.40     0.1742     0.0037     0.0021     0.0084     0.1754     2.1455    13.4400     0.1620    -0.0335
   44    0.860   2547.36     0.1446     0.0040    -0.0003     0.0086     0.1466     2.6360    13.7600     0.1329    -0.0268
   45    0.880   2548.39     0.1356     0.0040     0.0020     0.0088     0.1353     2.9758    14.0800     0.1212    -0.0797
   46    0.900   2549.38     0.1118     0.0037     0.0082     0.0090     0.1146     3.2610    14.4000     0.1002    -0.0224
   47    0.920   2550.34     0.0903     0.0029     0.0119     0.0092     0.0953     3.1433    14.7200     0.0806     0.0370
   48    0.940   2551.35     0.0835     0.0029     0.0166     0.0094     0.0888     3.4130    15.0400     0.0738     0.0474
   49    0.960   2552.39     0.1146     0.0035     0.0182     0.0096     0.1221     3.3248    15.3600     0.1067     0.0800
   50    0.980   2553.39     0.1291     0.0039     0.0173     0.0098     0.1376     2.9988    15.6800     0.1219     0.0841
   51    1.000   2554.40     0.1218     0.0040     0.0094     0.0100     0.1262     3.2304    16.0000     0.1102     0.0033
   52    1.020   2555.41     0.1032     0.0040     0.0075     0.0102     0.1060     3.6568    16.3200     0.0897    -0.0398
   53    1.040   2556.38     0.0815     0.0038     0.0109     0.0104     0.0851     4.4502    16.6400     0.0685    -0.0272
   54    1.060   2557.37     0.0605     0.0038     0.0172     0.0106     0.0662     5.3942    16.9600     0.0492     0.0587
   55    1.080   2558.35     0.0455     0.0037     0.0306     0.0108     0.0565     7.6088    17.2800     0.0393     0.3950
   56    1.100   2559.44     0.0435     0.0033     0.0268     0.0110     0.0538     7.9617    17.6000     0.0362     0.3719
   57    1.120   2560.36     0.0427     0.0033     0.0319     0.0112     0.0557     7.3083    17.9200     0.0378     0.5248
   58    1.140   2561.19     0.0403     0.0036     0.0305     0.0114     0.0537     8.4723    18.2400     0.0355     0.5821
   59    1.160   2561.99     0.0376     0.0036     0.0329     0.0116     0.0511     9.4744    18.5600     0.0325     0.6312
   60    1.180   2563.02     0.0359     0.0038     0.0346     0.0118     0.0503    10.6435    18.8800     0.0314     0.7182
   61    1.200   2563.98     0.0451     0.0040     0.0365     0.0120     0.0601    10.3765    19.2000     0.0409     0.5771
   62    1.220   2564.98     0.0563     0.0040     0.0397     0.0122     0.0729     7.1913    19.5200     0.0534     0.5127
   63    1.240   2566.01     0.0595     0.0041     0.0313     0.0124     0.0760     6.9359    19.8400     0.0562     0.4801
   64    1.260   2567.01     0.0573     0.0036     0.0384     0.0126     0.0712     6.1338    20.1600     0.0510     0.4014
   65    1.280   2568.07     0.0568     0.0033     0.0426     0.0128     0.0743     5.7406    20.4800     0.0538     0.5360
   66    1.300   2569.07     0.0546     0.0032     0.0465     0.0130     0.0734     5.8112    20.8000     0.0526     0.6063
   67    1.320   2570.06     0.0548     0.0032     0.0509     0.0132     0.0755     5.8219    21.1200     0.0544     0.6663
   68    1.340   2571.09     0.0532     0.0030     0.0549     0.0134     0.0758     5.6870    21.4400     0.0544     0.7422
   69    1.360   2572.06     0.0551     0.0029     0.0548     0.0136     0.0783     5.3515    21.7600     0.0566     0.7370
   70    1.380   2573.11     0.0574     0.0034     0.0548     0.0138     0.0803     5.8665    22.0800     0.0582     0.6984
   71    1.400   2574.11     0.0598     0.0035     0.0552     0.0140     0.0829     5.8876    22.4000     0.0605     0.6761
   72    1.420   2575.10     0.0651     0.0036     0.0551     0.0142     0.0884     5.5647    22.7200     0.0657     0.6283
   73    1.440   2576.11     0.0686     0.0035     0.0543     0.0144     0.0916     5.2190    23.0400     0.0686     0.5892
   74    1.460   2577.08     0.0746     0.0034     0.0335     0.0146     0.0908     4.4909    23.3600     0.0675     0.3571
   75    1.480   2578.15     0.0663     0.0034     0.0420     0.0148     0.0812     4.9607    23.6800     0.0575     0.3619
   76    1.500   2579.12     0.0633     0.0035     0.0521     0.0150     0.0822     5.5870    24.0000     0.0582     0.5108
   77    1.520   2580.11     0.0632     0.0038     0.0551     0.0152     0.0863     5.9753    24.3200     0.0619     0.6406
   78    1.540   2581.15     0.0650     0.0037     0.0542     0.0154     0.0883     5.7190    24.6400     0.0637     0.6292
   79    1.560   2582.11     0.0665     0.0036     0.0546     0.0156     0.0894     5.4219    24.9600     0.0644     0.6046
   80    1.580   2583.15     0.0681     0.0034     0.0561     0.0158     0.0916     5.0855    25.2800     0.0663     0.6038
   81    1.600   2584.14     0.0673     0.0035     0.0571     0.0160     0.0912     5.1740    25.6000     0.0656     0.6243
   82    1.620   2585.15     0.0665     0.0034     0.0602     0.0162     0.0915     5.1615    25.9200     0.0656     0.6606
   83    1.640   2586.11     0.0650     0.0034     0.0639     0.0164     0.0913     5.1806    26.2400     0.0651     0.7100
   84    1.660   2587.06     0.0660     0.0033     0.0645     0.0166     0.0933     5.0038    26.5600     0.0667     0.7230
   85    1.680   2588.05     0.0678     0.0033     0.0653     0.0168     0.0950     4.8621    26.8800     0.0681     0.7034
   86    1.700   2589.18     0.0706     0.0033     0.0658     0.0170     0.0981     4.7205    27.2000     0.0709     0.6843
   87    1.720   2590.24     0.0725     0.0035     0.0630     0.0172     0.0994     4.8406    27.5200     0.0719     0.6501
   88    1.740   2591.20     0.0760     0.0037     0.0600     0.0174     0.1019     4.8464    27.8400     0.0741     0.5978
   89    1.760   2592.46     0.0796     0.0037     0.0589     0.0176     0.1045     4.6750    28.1600     0.0763     0.5443
   90    1.780   2595.49     0.0830     0.0037     0.0581     0.0178     0.1075     4.6922    28.4800     0.0791     0.5157
   91    1.800   2598.53     0.0864     0.0037     0.0574     0.0180     0.1106     4.5882    28.8000     0.0818     0.4871
   92    1.820   2601.53     0.0896     0.0039     0.0578     0.0182     0.1136     4.6044    29.1200     0.0845     0.4600
   93    1.840   2602.53     0.0888     0.0041     0.0576     0.0184     0.1131     4.6205    29.4400     0.0837     0.4717
   94    1.860   2603.54     0.0885     0.0044     0.0605     0.0186     0.1137     4.9544    29.7600     0.0839     0.4918
   95    1.880   2604.59     0.0858     0.0044     0.0635     0.0188     0.1123     5.1349    30.0800     0.0822     0.5390
   96    1.900   2607.37     0.0894     0.0042     0.0609     0.0190     0.1154     4.7300    30.4000     0.0850     0.5044
   97    1.920   2629.84     0.0952     0.0040     0.0584     0.0192     0.1201     4.3072    30.7200     0.0894     0.4525
   98    1.940   2652.31     0.1010     0.0046     0.0559     0.0194     0.1248     4.6235    31.0400     0.0938     0.4007
   99    1.960   2662.11     0.1008     0.0049     0.0602     0.0196     0.1249     4.8160    31.3600     0.0935     0.4033
  100    1.980   2663.16     0.0967     0.0049     0.0624     0.0198     0.1235     5.0673    31.6800     0.0918     0.4800
  101    2.000   2664.19     0.0947     0.0048     0.0629     0.0200     0.1215     5.0350    32.0000     0.0895     0.4903
  102    2.020   2675.78     0.0731     0.0048     0.0673     0.0202     0.1017     6.2160    32.3200     0.0694     0.6968
  103    2.040   2704.96     0.0814     0.0045     0.0645     0.0204     0.1089     6.3621    32.6400     0.0763     0.6010
  104    2.060   2731.07     0.0889     0.0043     0.0667     0.0206     0.1158     5.5077    32.9600     0.0828     0.5228
  105    2.080   2731.73     0.0907     0.0044     0.0718     0.0208     0.1203     4.8829    33.2800     0.0871     0.5710
  106    2.100   2732.38     0.0975     0.0043     0.0740     0.0210     0.1282     4.7450    33.6000     0.0946     0.5521
  107    2.120   2733.05     0.1034     0.0044     0.0767     0.0212     0.1353     4.4241    33.9200     0.1013     0.5385
  108    2.140   2733.83     0.1062     0.0046     0.0702     0.0214     0.1371     4.3143    34.2400     0.1029     0.5072
  109    2.160   2734.49     0.1091     0.0039     0.0657     0.0216     0.1362     3.5764    34.5600     0.1017     0.4238
  110    2.180   2735.10     0.1081     0.0048     0.0677     0.0218     0.1365     4.3954    34.8800     0.1016     0.4508
  111    2.200   2735.71     0.1072     0.0051     0.0640     0.0220     0.1350     4.7610    35.2000     0.0998     0.4417
  112    2.220   2736.31     0.1067     0.0046     0.0661     0.0222     0.1339     4.3662    35.5200     0.0984     0.4334
  113    2.240   2736.93     0.1028     0.0041     0.0712     0.0224     0.1323     3.9715    35.8400     0.0965     0.4955
  114    2.260   2737.64     0.1280     0.0045     0.0706     0.0226     0.1580     4.4292    36.1600     0.1218     0.4381
  115    2.280   2738.35     0.1450     0.0065     0.0682     0.0228     0.1737     3.6200    36.4800     0.1372     0.3454
  116    2.300   2741.87     0.1368     0.0078     0.0622     0.0230     0.1651     6.4019    36.8000     0.1283     0.3959
  117    2.320   2756.76     0.2251     0.0097     0.0468     0.0232     0.2470     8.1295    37.1200     0.2098     0.2587
  118    2.340   2771.64     0.3134     0.0075     0.0315     0.0234     0.3288     6.2914    37.4400     0.2914     0.1214
  119    2.360   2785.08     0.3938     0.0077     0.0294     0.0236     0.4041     5.0304    37.7600     0.3664     0.0025
  120    2.380   2786.15     0.4856     0.0074     0.0182     0.0238     0.4929     1.5831    38.0800     0.4548    -0.0146
  121    2.400   2787.29     0.4323     0.0074     0.0261     0.0240     0.4437     1.7870    38.4000     0.4053     0.0082
  122    2.420   2788.22     0.3917     0.0074     0.0337     0.0242     0.4047     1.8532    38.7200     0.3660     0.0193
  123    2.440   2789.16     0.3307     0.0078     0.0336     0.0244     0.3419     2.3161    39.0400     0.3029     0.0083
  124    2.460   2790.23     0.2779     0.0074     0.0373     0.0246     0.2930     2.4506    39.3600     0.2536     0.0443
  125    2.480   2791.23     0.2138     0.0063     0.0418     0.0248     0.2313     2.9133    39.6800     0.1916     0.0883
  126    2.500   2792.28     0.1625     0.0057     0.0520     0.0250     0.1827     3.4033    40.0000     0.1427     0.1624
  127    2.520   2793.22     0.1372     0.0051     0.0642     0.0252     0.1627     3.6254    40.3200     0.1223     0.2908
  128    2.540   2794.22     0.1293     0.0051     0.0714     0.0254     0.1592     3.9464    40.6400     0.1185     0.3849
  129    2.560   2795.38     0.1338     0.0052     0.0716     0.0256     0.1637     3.8767    40.9600     0.1227     0.3711
  130    2.580   2796.33     0.1357     0.0055     0.0768     0.0258     0.1671     4.1413    41.2800     0.1259     0.3893
  131    2.600   2797.26     0.1622     0.0054     0.0772     0.0260     0.1949     3.7876    41.6000     0.1533     0.3417
  132    2.620   2798.20     0.2174     0.0053     0.0723     0.0262     0.2486     2.8183    41.9200     0.2067     0.2344
  133    2.640   2799.16     0.2909     0.0047     0.0566     0.0264     0.3183     1.7702    42.2400     0.2761     0.1421
  134    2.660   2800.33     0.4107     0.0045     0.0505     0.0266     0.4321     1.2863    42.5600     0.3895     0.0630
  135    2.680   2801.44     0.5216     0.0046     0.0474     0.0268     0.5414     0.8856    42.8800     0.4985     0.0407
  136    2.700   2802.43     0.6346     0.0044     0.0403     0.0270     0.6525     0.6978    43.2000     0.6093     0.0259
