

 Program UNIPLOT                         version 05.36.02
 _______________
 (c) Fugro Netherlands Marine, Nootdorp, The Netherlands


 ASCII representation of data plotted on a graph.

 This ASCII file presents data interpolated to values per fixed depth interval.
 The data are corrected for the depth-offset differences between the various 
 transducers in the penetrometer.

 The records at the start of penetration may include no values or anomalous
 values where a depth offset implies incomplete penetration of a particular
 sensor into the ground.

 The records at the end of penetration may include no values for data channels
 where the transducer did not reach this depth.

 The reference level for test values is (1) the ground surface for onshore tests and (2) the seafloor for nearshore and offshore tests.

 UNICAS data file          : CPT-1034.000                            
 Output using command file : PlotASCII.cmd

 ASCII file created at : date          :20-Apr-2022
                         time          :10:19:33
 Project number                        :20024805                                                                                            
 Date of testing                       :11-Apr-2022                                                                                         
 Location                              :Hong Kong Offshore Wind Farm Project                                                                
 Test name                             :CPT-1034
 Penetrometer                          :F7.5CKE2HAW2/B/3342
 Serial no                             :1701-3342

 Table description:
 Column ID                             :Parameter name
 ___________________________________________________________________________________
 Rec                                   :Record ID, Record ID [-]
 Depth                                 :Depth, Depth [m]
 Time                                  :Time, Time [s]
 Cone                                  :Cone Resistance, Cone Resistance [MPa]
 Friction                              :Sleeve Friction, Sleeve Friction [MPa]
 Pore 2                                :Porewater Pressure, Porewater Pressure at Shoulder [MPa]
 HydroPress                            :Hydrostatic Pressure, Hydrostatic Pressure [MPa]
 qt                                    :Total Cone Resistance, Total Cone Resistance [MPa]
 Fric_ratio                            :Friction Ratio, Friction Ratio [%]
 SigmaVert                             :Vertical stress, Vertical stress [kPa] as specified in ground model
 Qnet                                  :Net Cone Resistance, Net Cone Resistance [MPa], unit weight as specified in ground model
 Bq                                    :Porewater Pressure Ratio, Porewater Pressure Ratio [-], unit weight as specified in ground model


 Data table:
  Rec    Depth      Time       Cone   Friction     Pore 2 HydroPress         qt Fric_ratio  SigmaVert       Qnet         Bq
   No        m         s        MPa        MPa        MPa        MPa        MPa          %        kPa        MPa          -
    1    0.000   1817.78     0.0000                           0.0000     0.0000                0.0000     0.0000           
    2    0.020   1818.77     0.0020                0.0004     0.0002     0.0023                0.3200     0.0019     0.1763
    3    0.040   1819.80     0.0055                0.0003     0.0004     0.0056                0.6400     0.0049    -0.0560
    4    0.060   1826.66     0.0035                0.0005     0.0006     0.0039                0.9600     0.0029     0.1459
    5    0.080   1827.75     0.0071     0.0003    -0.0006     0.0008     0.0069     4.2324     1.2800     0.0056    -0.2405
    6    0.100   1828.79     0.0047     0.0005    -0.0002     0.0010     0.0045     6.7046     1.6000     0.0029    -0.5371
    7    0.120   1829.88     0.0097     0.0009    -0.0005     0.0012     0.0095     9.9161     1.9200     0.0076    -0.2130
    8    0.140   1830.89     0.0085     0.0006     0.0002     0.0014     0.0085     9.1061     2.2400     0.0063    -0.1990
    9    0.160   1831.91     0.0081     0.0006     0.0013     0.0016     0.0085     7.1750     2.5600     0.0059    -0.1016
   10    0.180   1832.95     0.0077     0.0006     0.0018     0.0018     0.0083     6.7576     2.8800     0.0054    -0.0727
   11    0.200   1833.96     0.0074     0.0007     0.0022     0.0020     0.0083     8.7665     3.2000     0.0051     0.0539
   12    0.220   1834.98     0.0090     0.0010     0.0028     0.0022     0.0100    10.4958     3.5200     0.0065     0.0509
   13    0.240   1836.00     0.0103     0.0011     0.0026     0.0024     0.0114    13.2703     3.8400     0.0076     0.0206
   14    0.260   1837.08     0.0088     0.0012     0.0006     0.0026     0.0095    11.4976     4.1600     0.0053    -0.3275
   15    0.280   1838.10     0.0097     0.0012     0.0012     0.0028     0.0099    14.6870     4.4800     0.0054    -0.4265
   16    0.300   1839.14     0.0094     0.0012     0.0027     0.0030     0.0104    10.5443     4.8000     0.0056    -0.1162
   17    0.320   1840.15     0.0113     0.0009     0.0035     0.0032     0.0125     9.3204     5.1200     0.0074    -0.0371
   18    0.340   1841.19     0.0081     0.0008     0.0040     0.0034     0.0097     8.6144     5.4400     0.0043     0.1286
   19    0.360   1842.21     0.0055     0.0010     0.0045     0.0036     0.0073    15.6726     5.7600     0.0016     0.5397
   20    0.380   1843.25     0.0051     0.0010     0.0049     0.0038     0.0072    20.2607     6.0800     0.0011     1.0992
   21    0.400   1844.26     0.0031     0.0012     0.0059     0.0040     0.0050    48.9764     6.4000    -0.0014    -0.5087
   22    0.420   1845.32     0.0063     0.0011     0.0079     0.0042     0.0094    20.2631     6.7200     0.0027     1.2143
   23    0.440   1846.33     0.0088     0.0010     0.0075     0.0044     0.0120    18.6016     7.0400     0.0049     0.6596
   24    0.460   1847.32     0.0039     0.0013     0.0077     0.0046     0.0072    28.7009     7.3600    -0.0001           
   25    0.480   1848.39     0.0084     0.0011     0.0062     0.0048     0.0111    22.7374     7.6800     0.0034     0.5174
   26    0.500   1849.39     0.0047     0.0013     0.0070     0.0050     0.0074    21.0070     8.0000    -0.0006    -3.9552
   27    0.520   1850.40     0.0026     0.0009     0.0072     0.0052     0.0056    38.9362     8.3200    -0.0028    -0.6781
   28    0.540   1851.47     0.0050     0.0010     0.0078     0.0054     0.0081    21.0458     8.6400    -0.0005    -0.3671
   29    0.560   1852.48     0.0032     0.0013     0.0074     0.0056     0.0065    32.4191     8.9600    -0.0024    -1.4453
   30    0.580   1853.52     0.0067     0.0019     0.0082     0.0058     0.0102    92.6093     9.2800     0.0009     6.2718
   31    0.600   1854.53     0.0091     0.0015     0.0078     0.0060     0.0122    16.5614     9.6000     0.0026     0.6730
   32    0.620   1855.56     0.0099     0.0019     0.0066     0.0062     0.0129    22.2266     9.9200     0.0030     0.3407
   33    0.640   1856.59     0.0113     0.0019     0.0077     0.0064     0.0145    15.7405    10.2400     0.0043     0.3172
   34    0.660   1857.58     0.0106     0.0017     0.0069     0.0066     0.0137    16.6443    10.5600     0.0031     0.2463
   35    0.680   1858.60     0.0073     0.0020     0.0069     0.0068     0.0102    20.4122    10.8800    -0.0007    -0.0570
   36    0.700   1859.64     0.0089     0.0020     0.0081     0.0070     0.0121    27.3207    11.2000     0.0009     0.4193
   37    0.720   1860.67     0.0065     0.0022     0.0088     0.0072     0.0104    28.5538    11.5200    -0.0011    -2.5619
   38    0.740   1861.73     0.0092     0.0018     0.0092     0.0074     0.0126    24.5348    11.8400     0.0008     0.4806
   39    0.760   1862.76     0.0075     0.0020     0.0131     0.0076     0.0127    25.3444    12.1600     0.0005     6.9170
   40    0.780   1863.80     0.0077     0.0020     0.0127     0.0078     0.0131    35.8779    12.4800     0.0006     7.3372
   41    0.800   1864.77     0.0065     0.0018     0.0125     0.0080     0.0113    32.2464    12.8000    -0.0015    -2.2765
   42    0.820   1865.79     0.0079     0.0017     0.0132     0.0082     0.0136    26.5315    13.1200     0.0005     6.0586
   43    0.840   1866.87     0.0096     0.0019     0.0130     0.0084     0.0152    23.5079    13.4400     0.0017     3.7972
   44    0.860   1867.90     0.0143     0.0020     0.0140     0.0086     0.0199    14.0271    13.7600     0.0062     0.7930
   45    0.880   1869.27     0.0154     0.0019     0.0136     0.0088     0.0214    20.3366    14.0800     0.0073     0.7782
   46    0.900   1888.68     0.0204     0.0021     0.0109     0.0090     0.0254    26.4696    14.4000     0.0110     0.3667
   47    0.920   1910.45     0.0252     0.0021     0.0085     0.0092     0.0291    27.4612    14.7200     0.0143     0.0291
   48    0.940   1916.11     0.0230     0.0024     0.0085     0.0094     0.0266    10.7094    15.0400     0.0115    -0.0786
   49    0.960   1917.14     0.0174     0.0024     0.0077     0.0096     0.0207    13.9698    15.3600     0.0054    -0.3066
   50    0.980   1918.23     0.0187     0.0022     0.0070     0.0098     0.0215    11.9301    15.6800     0.0058    -0.5551
   51    1.000   1919.21     0.0158     0.0018     0.0093     0.0100     0.0194    10.5037    16.0000     0.0034    -0.4350
   52    1.020   1920.23     0.0135     0.0015     0.0122     0.0102     0.0181    10.9218    16.3200     0.0018     0.4374
   53    1.040   1921.26     0.0125     0.0015     0.0153     0.0104     0.0184    11.6786    16.6400     0.0018     2.1368
   54    1.060   1922.27     0.0143     0.0013     0.0181     0.0106     0.0217    11.1839    16.9600     0.0047     1.7301
   55    1.080   1923.29     0.0111     0.0013     0.0192     0.0108     0.0190    11.8646    17.2800     0.0018     4.6509
   56    1.100   1924.29     0.0133     0.0016     0.0189     0.0110     0.0213    11.5911    17.6000     0.0037     2.2036
   57    1.120   1925.33     0.0209     0.0016     0.0188     0.0112     0.0287     7.6697    17.9200     0.0108     0.6704
   58    1.140   1926.34     0.0167     0.0014     0.0189     0.0114     0.0246     8.2716    18.2400     0.0064     1.1776
   59    1.160   1927.36     0.0198     0.0015     0.0184     0.0116     0.0275     7.3327    18.5600     0.0089     0.7666
   60    1.180   1928.37     0.0180     0.0015     0.0194     0.0118     0.0261     8.5791    18.8800     0.0072     1.0258
   61    1.200   1929.40     0.0184     0.0018     0.0197     0.0120     0.0267     9.7191    19.2000     0.0075     1.0656
   62    1.220   1930.43     0.0205     0.0018     0.0196     0.0122     0.0288     8.8792    19.5200     0.0093     0.8251
   63    1.240   1931.43     0.0236     0.0019     0.0210     0.0124     0.0321     7.8569    19.8400     0.0123     0.6498
   64    1.260   1932.42     0.0221     0.0020     0.0214     0.0126     0.0311     8.6850    20.1600     0.0110     0.8321
   65    1.280   1933.46     0.0225     0.0019     0.0195     0.0128     0.0310     8.6162    20.4800     0.0105     0.7100
   66    1.300   1934.45     0.0233     0.0020     0.0209     0.0130     0.0317     9.4988    20.8000     0.0109     0.6645
   67    1.320   1935.49     0.0254     0.0023     0.0222     0.0132     0.0346    10.9164    21.1200     0.0135     0.6557
   68    1.340   1936.50     0.0312     0.0025     0.0228     0.0134     0.0408     8.8456    21.4400     0.0194     0.4872
   69    1.360   1937.54     0.0374     0.0023     0.0285     0.0136     0.0487     6.3159    21.7600     0.0269     0.4935
   70    1.380   1938.54     0.0402     0.0022     0.0241     0.0138     0.0512     5.5946    22.0800     0.0291     0.4220
   71    1.400   1939.55     0.0440     0.0023     0.0233     0.0140     0.0538     5.4363    22.4000     0.0314     0.2991
   72    1.420   1940.58     0.0449     0.0025     0.0259     0.0142     0.0554     5.5541    22.7200     0.0327     0.3257
   73    1.440   1941.60     0.0475     0.0026     0.0256     0.0144     0.0584     5.4586    23.0400     0.0353     0.3244
   74    1.460   1942.63     0.0518     0.0031     0.0251     0.0146     0.0624     5.9151    23.3600     0.0390     0.2724
   75    1.480   1943.65     0.0549     0.0028     0.0218     0.0148     0.0648     5.2386    23.6800     0.0411     0.2146
   76    1.500   1944.66     0.0516     0.0031     0.0200     0.0150     0.0601     6.0031    24.0000     0.0361     0.1447
   77    1.520   1945.66     0.0491     0.0029     0.0218     0.0152     0.0579     5.7563    24.3200     0.0336     0.1753
   78    1.540   1946.68     0.0468     0.0034     0.0207     0.0154     0.0560     7.2186    24.6400     0.0314     0.2109
   79    1.560   1947.71     0.0490     0.0032     0.0241     0.0156     0.0581     6.4689    24.9600     0.0332     0.1897
   80    1.580   1948.69     0.0566     0.0032     0.0289     0.0158     0.0685     5.7272    25.2800     0.0433     0.2931
   81    1.600   1949.72     0.0622     0.0031     0.0292     0.0160     0.0745     5.1723    25.6000     0.0489     0.2716
   82    1.620   1950.75     0.0594     0.0030     0.0256     0.0162     0.0706     5.1110    25.9200     0.0447     0.2348
   83    1.640   1951.73     0.0557     0.0030     0.0258     0.0164     0.0663     5.4086    26.2400     0.0401     0.2189
   84    1.660   1952.77     0.0517     0.0031     0.0259     0.0166     0.0623     6.0522    26.5600     0.0357     0.2393
   85    1.680   1953.80     0.0501     0.0026     0.0300     0.0168     0.0621     5.2044    26.8800     0.0353     0.3357
   86    1.700   1954.83     0.0500     0.0028     0.0364     0.0170     0.0643     5.6882    27.2000     0.0371     0.4559
   87    1.720   1955.81     0.0519     0.0028     0.0414     0.0172     0.0686     5.3411    27.5200     0.0411     0.5530
   88    1.740   1956.82     0.0526     0.0025     0.0440     0.0174     0.0709     4.6588    27.8400     0.0430     0.6058
   89    1.760   1957.83     0.0515     0.0022     0.0439     0.0176     0.0702     4.2950    28.1600     0.0421     0.6385
   90    1.780   1958.84     0.0501     0.0025     0.0417     0.0178     0.0679     5.1191    28.4800     0.0394     0.6210
   91    1.800   1959.86     0.0466     0.0018     0.0407     0.0180     0.0634     3.9341    28.8000     0.0346     0.6332
   92    1.820   1960.89     0.0429     0.0019     0.0432     0.0182     0.0608     4.4722    29.1200     0.0317     0.7712
   93    1.840   1961.92     0.0457     0.0019     0.0451     0.0184     0.0644     4.0566    29.4400     0.0350     0.7486
   94    1.860   1962.90     0.0477     0.0022     0.0445     0.0186     0.0665     4.8388    29.7600     0.0368     0.7125
   95    1.880   1963.94     0.0455     0.0024     0.0437     0.0188     0.0638     5.3018    30.0800     0.0338     0.7383
   96    1.900   1964.96     0.0526     0.0025     0.0419     0.0190     0.0700     5.0665    30.4000     0.0396     0.5708
   97    1.920   1966.01     0.0542     0.0024     0.0353     0.0192     0.0705     4.4625    30.7200     0.0397     0.4932
   98    1.940   1967.00     0.0521     0.0028     0.0313     0.0194     0.0663     5.2826    31.0400     0.0353     0.4055
   99    1.960   1968.05     0.0524     0.0024     0.0388     0.0196     0.0677     4.6020    31.3600     0.0363     0.4638
  100    1.980   1969.06     0.0554     0.0025     0.0437     0.0198     0.0732     4.6938    31.6800     0.0415     0.5440
  101    2.000   1970.06     0.0607     0.0029     0.0453     0.0200     0.0788     4.8216    32.0000     0.0468     0.4965
  102    2.020   1971.08     0.0640     0.0029     0.0476     0.0202     0.0841     4.6180    32.3200     0.0518     0.5335
  103    2.040   1972.09     0.0679     0.0027     0.0465     0.0204     0.0876     3.9658    32.6400     0.0549     0.4835
  104    2.060   1973.09     0.0698     0.0028     0.0466     0.0206     0.0891     4.1811    32.9600     0.0561     0.4515
  105    2.080   1974.16     0.0740     0.0026     0.0477     0.0208     0.0940     3.4844    33.2800     0.0607     0.4404
  106    2.100   1975.18     0.0704     0.0030     0.0493     0.0210     0.0907     4.3177    33.6000     0.0571     0.4794
  107    2.120   1976.19     0.0725     0.0033     0.0496     0.0212     0.0936     4.6604    33.9200     0.0597     0.4842
  108    2.140   1977.22     0.0795     0.0037     0.0479     0.0214     0.1000     4.6596    34.2400     0.0658     0.4183
  109    2.160   1978.22     0.0822     0.0038     0.0453     0.0216     0.1020     4.7050    34.5600     0.0674     0.3785
  110    2.180   1979.26     0.0760     0.0037     0.0418     0.0218     0.0937     4.8829    34.8800     0.0588     0.3465
  111    2.200   1980.27     0.0810     0.0040     0.0452     0.0220     0.0991     4.8691    35.2000     0.0639     0.3311
  112    2.220   1981.29     0.0753     0.0042     0.0494     0.0222     0.0958     5.4749    35.5200     0.0603     0.4425
  113    2.240   1982.33     0.0807     0.0036     0.0520     0.0224     0.1024     4.4768    35.8400     0.0665     0.4373
  114    2.260   1983.39     0.0872     0.0035     0.0551     0.0226     0.1095     4.1677    36.1600     0.0733     0.4168
  115    2.280   1984.41     0.0907     0.0034     0.0619     0.0228     0.1155     3.8673    36.4800     0.0790     0.4590
  116    2.300   1985.42     0.0934     0.0033     0.0649     0.0230     0.1203     3.5886    36.8000     0.0835     0.4929
  117    2.320   1986.40     0.0957     0.0037     0.0657     0.0232     0.1231     3.9720    37.1200     0.0860     0.4884
  118    2.340   1987.43     0.0993     0.0038     0.0656     0.0234     0.1275     3.9063    37.4400     0.0900     0.4859
  119    2.360   1988.48     0.0984     0.0036     0.0601     0.0236     0.1243     3.6030    37.7600     0.0865     0.4390
  120    2.380   1989.53     0.0955     0.0037     0.0579     0.0238     0.1200     3.8423    38.0800     0.0819     0.4213
  121    2.400   1990.55     0.0908     0.0037     0.0612     0.0240     0.1159     4.0910    38.4000     0.0775     0.4623
  122    2.420   1991.57     0.0853     0.0036     0.0680     0.0242     0.1128     4.0325    38.7200     0.0740     0.5572
  123    2.440   1992.57     0.0833     0.0033     0.0723     0.0244     0.1131     3.9844    39.0400     0.0740     0.6278
  124    2.460   1993.61     0.0886     0.0033     0.0737     0.0246     0.1193     3.7221    39.3600     0.0800     0.6078
  125    2.480   1994.65     0.0895     0.0030     0.0761     0.0248     0.1213     3.3532    39.6800     0.0816     0.6247
  126    2.500   1995.63     0.0935     0.0030     0.0765     0.0250     0.1255     3.1995    40.0000     0.0855     0.5993
  127    2.520   1996.65     0.0937     0.0030     0.0751     0.0252     0.1260     3.2527    40.3200     0.0857     0.6034
  128    2.540   1997.69     0.0957     0.0032     0.0730     0.0254     0.1263     3.2844    40.6400     0.0857     0.5540
  129    2.560   1998.68     0.0958     0.0030     0.0750     0.0256     0.1270     3.0724    40.9600     0.0860     0.5652
  130    2.580   1999.74     0.0955     0.0031     0.0720     0.0258     0.1263     3.2785    41.2800     0.0851     0.5613
  131    2.600   2000.74     0.0979     0.0029     0.0712     0.0260     0.1277     2.9342    41.6000     0.0861     0.5221
  132    2.620   2001.79     0.0964     0.0030     0.0723     0.0262     0.1262     3.0071    41.9200     0.0843     0.5308
  133    2.640   2002.80     0.0978     0.0034     0.0771     0.0264     0.1296     3.5182    42.2400     0.0874     0.5643
  134    2.660   2003.83     0.1008     0.0035     0.0787     0.0266     0.1336     3.5443    42.5600     0.0910     0.5649
