

 Program UNIPLOT                         version 05.36.02
 _______________
 (c) Fugro Netherlands Marine, Nootdorp, The Netherlands


 ASCII representation of data plotted on a graph.

 This ASCII file presents data interpolated to values per fixed depth interval.
 The data are corrected for the depth-offset differences between the various 
 transducers in the penetrometer.

 The records at the start of penetration may include no values or anomalous
 values where a depth offset implies incomplete penetration of a particular
 sensor into the ground.

 The records at the end of penetration may include no values for data channels
 where the transducer did not reach this depth.

 The reference level for test values is (1) the ground surface for onshore tests and (2) the seafloor for nearshore and offshore tests.

 UNICAS data file          : CPT-2031.005                            
 Output using command file : PlotASCII.cmd

 ASCII file created at : date          :14-Dec-2021
                         time          :09:58:13
 Project number                        :20024805
 Date of testing                       :13-Dec-2021
 Location                              :Hong Kong Offshore Wind Farm Project
 Test name                             :CPT-2031
 Penetrometer                          :F7.5CKE2HAW2/B/3284
 Serial no                             :1701-3284

 Table description:
 Column ID                             :Parameter name
 ___________________________________________________________________________________
 Rec                                   :Record ID, Record ID [-]
 Depth                                 :Depth, Depth [m]
 Time                                  :Time, Time [s]
 Cone                                  :Cone Resistance, Cone Resistance [MPa]
 Friction                              :Sleeve Friction, Sleeve Friction [MPa]
 Pore 2                                :Porewater Pressure, Porewater Pressure at Shoulder [MPa]
 HydroPress                            :Hydrostatic Pressure, Hydrostatic Pressure [MPa]
 qt                                    :Total Cone Resistance, Total Cone Resistance [MPa]
 Fric_ratio                            :Friction Ratio, Friction Ratio [%]
 SigmaVert                             :Vertical stress, Vertical stress [kPa] as specified in ground model
 Qnet                                  :Net Cone Resistance, Net Cone Resistance [MPa], unit weight as specified in ground model
 Bq                                    :Porewater Pressure Ratio, Porewater Pressure Ratio [-], unit weight as specified in ground model


 Data table:
  Rec    Depth      Time       Cone   Friction     Pore 2 HydroPress         qt Fric_ratio  SigmaVert       Qnet         Bq
   No        m         s        MPa        MPa        MPa        MPa        MPa          %        kPa        MPa          -
    1    0.000   2968.38     0.0000                           0.0000     0.0000                0.0000     0.0000           
    2    0.020   2969.33     0.0017                0.0006     0.0002     0.0019                0.3200     0.0015     0.1037
    3    0.040   3268.42     0.0048                0.0009     0.0004     0.0055                0.6400     0.0049     0.2387
    4    0.060   3269.40     0.0026     0.0001     0.0014     0.0006     0.0030     4.9592     0.9600     0.0021     0.1899
    5    0.080   3270.36     0.0094     0.0002     0.0031     0.0008     0.0105     2.3748     1.2800     0.0092     0.1957
    6    0.100   3271.35     0.0040     0.0006     0.0047     0.0010     0.0057     9.3607     1.6000     0.0041     0.7899
    7    0.120   3272.34     0.0063     0.0011     0.0061     0.0012     0.0087    16.3465     1.9200     0.0068     0.6604
    8    0.140   3273.32     0.0088     0.0008     0.0070     0.0014     0.0117     7.6953     2.2400     0.0094     0.5931
    9    0.160   3274.29     0.0060     0.0013     0.0077     0.0016     0.0092    22.0373     2.5600     0.0067     0.9194
   10    0.180   3275.24     0.0072     0.0007     0.0078     0.0018     0.0104     9.0870     2.8800     0.0076     0.7903
   11    0.200   3306.47     0.0075     0.0007     0.0080     0.0020     0.0108    10.0903     3.2000     0.0076     0.7834
   12    0.220   3344.41     0.0081     0.0009     0.0083     0.0022     0.0115    13.3364     3.5200     0.0080     0.7481
   13    0.240   3364.40     0.0058     0.0007     0.0090     0.0024     0.0096    10.0372     3.8400     0.0058     1.1499
   14    0.260   3365.39     0.0080     0.0008     0.0097     0.0026     0.0120     7.1966     4.1600     0.0078     0.8894
   15    0.280   3366.37     0.0090     0.0008     0.0105     0.0028     0.0134    13.3357     4.4800     0.0089     0.8951
   16    0.300   3367.32     0.0102     0.0004     0.0111     0.0030     0.0147     4.1882     4.8000     0.0099     0.7869
   17    0.320   3368.28     0.0090     0.0011     0.0112     0.0032     0.0137     8.2169     5.1200     0.0086     1.0204
   18    0.340   3369.25     0.0100     0.0006     0.0112     0.0034     0.0147     5.3677     5.4400     0.0093     0.8393
   19    0.360   3370.20     0.0070     0.0003     0.0114     0.0036     0.0118     3.4012     5.7600     0.0061     1.5778
   20    0.380   3371.18     0.0131     0.0009     0.0114     0.0038     0.0179     7.0119     6.0800     0.0118     0.6526
   21    0.400   3372.10     0.0100     0.0007     0.0108     0.0040     0.0146     9.0554     6.4000     0.0082     1.0601
   22    0.420   3373.09     0.0081     0.0005     0.0112     0.0042     0.0127     5.9990     6.7200     0.0060     1.1797
   23    0.440   3374.07     0.0124     0.0003     0.0113     0.0044     0.0171     2.8344     7.0400     0.0101     0.6786
   24    0.460   3375.01     0.0204     0.0003     0.0120     0.0046     0.0253     1.7151     7.3600     0.0180     0.3988
   25    0.480   3375.98     0.0173     0.0006     0.0118     0.0048     0.0222     3.5239     7.6800     0.0145     0.4768
   26    0.500   3376.94     0.0169     0.0011     0.0118     0.0050     0.0219     6.3393     8.0000     0.0139     0.4969
   27    0.520   3377.90     0.0190     0.0011     0.0117     0.0052     0.0239     6.1389     8.3200     0.0156     0.4117
   28    0.540   3378.89     0.0211     0.0015     0.0116     0.0054     0.0262     7.6076     8.6400     0.0175     0.3743
   29    0.560   3379.85     0.0236     0.0009     0.0112     0.0056     0.0284     4.3463     8.9600     0.0194     0.3010
   30    0.580   3393.93     0.0228     0.0010     0.0109     0.0058     0.0274     4.5252     9.2800     0.0182     0.2824
   31    0.600   3426.63     0.0238     0.0013     0.0108     0.0060     0.0283     5.9295     9.6000     0.0187     0.2589
   32    0.620   3453.62     0.0267     0.0010     0.0111     0.0062     0.0312     4.2440     9.9200     0.0213     0.2228
   33    0.640   3454.61     0.0267     0.0010     0.0115     0.0064     0.0313     3.6036    10.2400     0.0211     0.2216
   34    0.660   3455.60     0.0260     0.0009     0.0115     0.0066     0.0308     3.7139    10.5600     0.0203     0.2399
   35    0.680   3456.58     0.0284     0.0007     0.0122     0.0068     0.0334     2.4647    10.8800     0.0225     0.2249
   36    0.700   3457.54     0.0305     0.0008     0.0128     0.0070     0.0358     2.7292    11.2000     0.0246     0.2279
   37    0.720   3458.51     0.0273     0.0009     0.0137     0.0072     0.0329     3.1283    11.5200     0.0214     0.2967
   38    0.740   3459.48     0.0286     0.0011     0.0149     0.0074     0.0346     4.0820    11.8400     0.0227     0.3049
   39    0.760   3460.44     0.0295     0.0002     0.0146     0.0076     0.0356     0.7962    12.1600     0.0235     0.2976
   40    0.780   3461.43     0.0273     0.0005     0.0147     0.0078     0.0335     1.7749    12.4800     0.0210     0.3286
   41    0.800   3462.36     0.0298     0.0011     0.0150     0.0080     0.0360     3.8893    12.8000     0.0232     0.2954
   42    0.820   3463.32     0.0280     0.0017     0.0153     0.0082     0.0343     6.0036    13.1200     0.0212     0.3303
   43    0.840   3464.28     0.0234     0.0019     0.0153     0.0084     0.0298     7.8623    13.4400     0.0163     0.4225
   44    0.860   3465.28     0.0289     0.0016     0.0155     0.0086     0.0353     5.7801    13.7600     0.0216     0.3147
   45    0.880   3472.33     0.0329     0.0018     0.0161     0.0088     0.0396     5.3102    14.0800     0.0255     0.2807
   46    0.900   3491.98     0.0310     0.0015     0.0167     0.0090     0.0379     4.4258    14.4000     0.0235     0.3276
   47    0.920   3511.63     0.0290     0.0019     0.0173     0.0092     0.0362     5.7967    14.7200     0.0215     0.3745
   48    0.940   3525.72     0.0274     0.0014     0.0178     0.0094     0.0348     5.0879    15.0400     0.0198     0.4129
   49    0.960   3526.68     0.0294     0.0019     0.0187     0.0096     0.0372     6.4424    15.3600     0.0218     0.4096
   50    0.980   3527.64     0.0317     0.0014     0.0192     0.0098     0.0396     4.4779    15.6800     0.0239     0.3819
   51    1.000   3528.63     0.0320     0.0012     0.0196     0.0100     0.0402     3.6612    16.0000     0.0242     0.3870
   52    1.020   3529.58     0.0292     0.0015     0.0201     0.0102     0.0375     4.8150    16.3200     0.0212     0.4558
   53    1.040   3530.53     0.0309     0.0016     0.0206     0.0104     0.0394     5.4336    16.6400     0.0228     0.4413
   54    1.060   3531.53     0.0278     0.0012     0.0210     0.0106     0.0365     3.9001    16.9600     0.0196     0.5224
   55    1.080   3532.43     0.0300     0.0014     0.0210     0.0108     0.0389     4.8205    17.2800     0.0216     0.4794
   56    1.100   3533.40     0.0343     0.0014     0.0211     0.0110     0.0431     4.2046    17.6000     0.0255     0.3902
   57    1.120   3534.42     0.0336     0.0013     0.0216     0.0112     0.0426     3.9170    17.9200     0.0247     0.4160
   58    1.140   3535.40     0.0299     0.0014     0.0220     0.0114     0.0391     5.0595    18.2400     0.0208     0.5044
   59    1.160   3536.34     0.0310     0.0016     0.0218     0.0116     0.0402     6.0991    18.5600     0.0216     0.4806
   60    1.180   3537.33     0.0296     0.0012     0.0225     0.0118     0.0390     4.1289    18.8800     0.0201     0.5200
   61    1.200   3538.29     0.0296     0.0014     0.0235     0.0120     0.0393     4.7529    19.2000     0.0201     0.5531
   62    1.220   3539.22     0.0312     0.0009     0.0244     0.0122     0.0413     2.8054    19.5200     0.0218     0.5459
   63    1.240   3540.21     0.0282     0.0013     0.0256     0.0124     0.0387     4.7276    19.8400     0.0189     0.6774
   64    1.260   3541.16     0.0270     0.0013     0.0264     0.0126     0.0380     4.5053    20.1600     0.0178     0.7624
   65    1.280   3542.12     0.0289     0.0014     0.0266     0.0128     0.0400     5.1496    20.4800     0.0196     0.7036
   66    1.300   3543.07     0.0303     0.0010     0.0268     0.0130     0.0415     3.2293    20.8000     0.0207     0.6733
   67    1.320   3544.03     0.0279     0.0014     0.0269     0.0132     0.0393     5.1078    21.1200     0.0182     0.7675
   68    1.340   3544.99     0.0295     0.0015     0.0270     0.0134     0.0408     5.1139    21.4400     0.0194     0.7015
   69    1.360   3545.99     0.0305     0.0011     0.0273     0.0136     0.0418     3.5841    21.7600     0.0201     0.6689
   70    1.380   3546.95     0.0251     0.0014     0.0279     0.0138     0.0367     5.0840    22.0800     0.0146     0.9466
   71    1.400   3547.91     0.0356     0.0012     0.0284     0.0140     0.0474     3.8776    22.4000     0.0250     0.5639
   72    1.420   3548.87     0.0317     0.0016     0.0291     0.0142     0.0438     5.2362    22.7200     0.0211     0.6996
   73    1.440   3549.81     0.0284     0.0016     0.0295     0.0144     0.0408     5.7293    23.0400     0.0178     0.8486
   74    1.460   3550.78     0.0329     0.0014     0.0294     0.0146     0.0452     4.6009    23.3600     0.0219     0.6778
   75    1.480   3551.72     0.0314     0.0013     0.0293     0.0148     0.0438     3.8601    23.6800     0.0201     0.7319
   76    1.500   3552.66     0.0332     0.0019     0.0293     0.0150     0.0455     6.0146    24.0000     0.0215     0.6658
   77    1.520   3553.64     0.0299     0.0012     0.0297     0.0152     0.0422     3.7235    24.3200     0.0179     0.7986
   78    1.540   3554.60     0.0296     0.0014     0.0301     0.0154     0.0421     4.6829    24.6400     0.0175     0.8267
   79    1.560   3555.56     0.0326     0.0015     0.0312     0.0156     0.0455     4.6313    24.9600     0.0205     0.7340
   80    1.580   3556.56     0.0281     0.0015     0.0318     0.0158     0.0414     5.5051    25.2800     0.0162     1.0101
   81    1.600   3557.53     0.0305     0.0015     0.0323     0.0160     0.0440     4.7137    25.6000     0.0184     0.8894
   82    1.620   3558.49     0.0322     0.0014     0.0329     0.0162     0.0460     4.7343    25.9200     0.0201     0.8346
   83    1.640   3559.43     0.0339     0.0014     0.0329     0.0164     0.0477     4.0120    26.2400     0.0215     0.7662
   84    1.660   3560.37     0.0336     0.0016     0.0333     0.0166     0.0476     4.8975    26.5600     0.0211     0.7941
   85    1.680   3561.38     0.0360     0.0012     0.0334     0.0168     0.0500     3.6033    26.8800     0.0231     0.7200
   86    1.700   3562.34     0.0326     0.0013     0.0336     0.0170     0.0467     3.8582    27.2000     0.0195     0.8477
   87    1.720   3563.30     0.0361     0.0008     0.0345     0.0172     0.0505     2.1655    27.5200     0.0229     0.7395
   88    1.740   3564.29     0.0375     0.0013     0.0353     0.0174     0.0523     3.4900    27.8400     0.0245     0.7279
   89    1.760   3565.23     0.0342     0.0010     0.0365     0.0176     0.0493     2.7653    28.1600     0.0212     0.8742
   90    1.780   3566.20     0.0418     0.0015     0.0374     0.0178     0.0574     3.7468    28.4800     0.0289     0.6691
   91    1.800   3567.16     0.0429     0.0013     0.0385     0.0180     0.0588     3.1709    28.8000     0.0300     0.6698
   92    1.820   3568.12     0.0478     0.0012     0.0372     0.0182     0.0638     2.6122    29.1200     0.0347     0.5725
   93    1.840   3569.11     0.0456     0.0013     0.0368     0.0184     0.0612     2.8533    29.4400     0.0317     0.5928
   94    1.860   3570.07     0.0511     0.0017     0.0371     0.0186     0.0666     3.6044    29.7600     0.0368     0.4986
   95    1.880   3571.06     0.0504     0.0020     0.0372     0.0188     0.0659     4.1084    30.0800     0.0359     0.5051
   96    1.900   3572.01     0.0512     0.0024     0.0376     0.0190     0.0670     4.8530    30.4000     0.0366     0.5082
   97    1.920   3572.98     0.0542     0.0024     0.0378     0.0192     0.0700     4.4628    30.7200     0.0393     0.4697
   98    1.940   3573.92     0.0595     0.0025     0.0386     0.0194     0.0756     4.5535    31.0400     0.0446     0.4256
   99    1.960   3580.94     0.0554     0.0022     0.0398     0.0196     0.0720     4.1333    31.3600     0.0406     0.4860
  100    1.980   3594.87     0.0576     0.0027     0.0411     0.0198     0.0747     4.9842    31.6800     0.0430     0.4854
  101    2.000   3608.80     0.0598     0.0022     0.0426     0.0200     0.0774     4.0186    32.0000     0.0454     0.4848
  102    2.020   3613.15     0.0609     0.0010     0.0450     0.0202     0.0795     1.7405    32.3200     0.0472     0.5128
  103    2.040   3614.08     0.0651     0.0003     0.0472     0.0204     0.0847     0.3971    32.6400     0.0521     0.5079
  104    2.060   3615.07     0.0669     0.0013     0.0488     0.0206     0.0871     1.9933    32.9600     0.0542     0.5104
  105    2.080   3616.02     0.0679     0.0030     0.0507     0.0208     0.0890     4.4761    33.2800     0.0557     0.5311
  106    2.100   3616.98     0.1189     0.0038     0.0539     0.0210     0.1411     4.1944    33.6000     0.1075     0.3089
  107    2.120   3617.98     0.2697     0.0041     0.0533     0.0212     0.2924     1.8606    33.9200     0.2585     0.1276
  108    2.140   3618.94     0.2935     0.0035     0.0169     0.0214     0.3163     1.1621    34.2400     0.2820     0.1134
  109    2.160   3619.88     0.2201     0.0035    -0.0049     0.0216     0.2154     1.4506    34.5600     0.1808    -0.1846
  110    2.180   3620.85     0.1596     0.0031     0.0186     0.0218     0.1649     1.7722    34.8800     0.1301    -0.0684
  111    2.200   3621.82     0.1214     0.0031     0.0255     0.0220     0.1314     2.3820    35.2000     0.0962     0.0180
  112    2.220   3622.81     0.0941     0.0035     0.0333     0.0222     0.1065     3.5018    35.5200     0.0710     0.1070
  113    2.240   3623.77     0.0833     0.0027     0.0431     0.0224     0.1003     3.1214    35.8400     0.0644     0.2805
  114    2.260   3624.73     0.0799     0.0012     0.0486     0.0226     0.0995     1.4733    36.1600     0.0634     0.3828
  115    2.280   3625.72     0.0830    -0.0004     0.0524     0.0228     0.1045    -0.4671    36.4800     0.0680     0.4180
  116    2.300   3626.67     0.0838     0.0016     0.0564     0.0230     0.1070     1.8797    36.8000     0.0702     0.4572
  117    2.320   3627.63     0.0900     0.0026     0.0601     0.0232     0.1147     2.9435    37.1200     0.0776     0.4581
  118    2.340   3628.60     0.2012     0.0043     0.0636     0.0234     0.2276     2.6497    37.4400     0.1901     0.2281
  119    2.360   3629.57     0.5086     0.0052     0.0525     0.0236     0.5328     1.1868    37.7600     0.4951     0.0709
  120    2.380   3630.51     0.7370     0.0068     0.0220     0.0238     0.7499     0.9481    38.0800     0.7118     0.0098
  121    2.400   3631.71     0.7542     0.0065     0.0186     0.0240     0.7605     0.8128    38.4000     0.7221    -0.0125
  122    2.420   3634.09     0.5160     0.0073     0.0176     0.0242     0.5239     1.5436    38.7200     0.4851    -0.0114
  123    2.440   3635.10     0.5616     0.0081     0.0197     0.0244     0.5696     1.3901    39.0400     0.5305    -0.0102
  124    2.460   3636.04     0.4978     0.0070     0.0225     0.0246     0.5070     1.3412    39.3600     0.4676    -0.0058
  125    2.480   3637.00     0.4468     0.0059     0.0261     0.0248     0.4572     1.2838    39.6800     0.4175     0.0001
  126    2.500   3637.99     0.3941     0.0056     0.0299     0.0250     0.4054     1.3692    40.0000     0.3654     0.0051
  127    2.520   3638.93     0.3485     0.0054     0.0312     0.0252     0.3614     1.5197    40.3200     0.3211     0.0171
  128    2.540   3639.92     0.2929     0.0058     0.0402     0.0254     0.3077     1.8412    40.6400     0.2671     0.0375
  129    2.560   3640.85     0.2103     0.0060     0.0537     0.0256     0.2302     2.6126    40.9600     0.1893     0.1161
  130    2.580   3641.82     0.1871     0.0057     0.0591     0.0258     0.2127     3.1634    41.2800     0.1714     0.2045
  131    2.600   3642.81     0.2882     0.0088     0.0387     0.0260     0.3061     3.4740    41.6000     0.2645     0.0657
  132    2.620   3643.76     0.3797     0.0093     0.0250     0.0262     0.3912     2.9124    41.9200     0.3493     0.0061
  133    2.640   3644.73     0.5596     0.0096     0.0158     0.0264     0.5687     1.9427    42.2400     0.5265    -0.0076
  134    2.660   3645.68     0.7702     0.0093     0.0180     0.0266     0.7760     1.3142    42.5600     0.7334    -0.0180
  135    2.680   3646.70     0.8906     0.0087     0.0207     0.0268     0.8993     0.9841    42.8800     0.8564    -0.0070
  136    2.700   3647.63     0.9338     0.0088     0.0149     0.0270     0.9420     0.9418    43.2000     0.8988    -0.0084
