

 Program UNIPLOT                         version 05.36.02
 _______________
 (c) Fugro Netherlands Marine, Nootdorp, The Netherlands


 ASCII representation of data plotted on a graph.

 This ASCII file presents data interpolated to values per fixed depth interval.
 The data are corrected for the depth-offset differences between the various 
 transducers in the penetrometer.

 The records at the start of penetration may include no values or anomalous
 values where a depth offset implies incomplete penetration of a particular
 sensor into the ground.

 The records at the end of penetration may include no values for data channels
 where the transducer did not reach this depth.

 The reference level for test values is (1) the ground surface for onshore tests and (2) the seafloor for nearshore and offshore tests.

 UNICAS data file          : CPT-2007.000                            
 Output using command file : PlotASCII.cmd

 ASCII file created at : date          :16-Jul-2022
                         time          :12:24:33
 Project number                        :20024805                                                                                            
 Date of testing                       :14-Jul-2022                                                                                         
 Location                              :Hong Kong Offshore Wind Farm Project                                                                
 Test name                             :CPT-2007
 Penetrometer                          :F7.5CKE2HAW2/B/3285
 Serial no                             :1701-3285

 Table description:
 Column ID                             :Parameter name
 ___________________________________________________________________________________
 Rec                                   :Record ID, Record ID [-]
 Depth                                 :Depth, Depth [m]
 Time                                  :Time, Time [s]
 Cone                                  :Cone Resistance, Cone Resistance [MPa]
 Friction                              :Sleeve Friction, Sleeve Friction [MPa]
 Pore 2                                :Porewater Pressure, Porewater Pressure at Shoulder [MPa]
 HydroPress                            :Hydrostatic Pressure, Hydrostatic Pressure [MPa]
 qt                                    :Total Cone Resistance, Total Cone Resistance [MPa]
 Fric_ratio                            :Friction Ratio, Friction Ratio [%]
 SigmaVert                             :Vertical stress, Vertical stress [kPa] as specified in ground model
 Qnet                                  :Net Cone Resistance, Net Cone Resistance [MPa], unit weight as specified in ground model
 Bq                                    :Porewater Pressure Ratio, Porewater Pressure Ratio [-], unit weight as specified in ground model


 Data table:
  Rec    Depth      Time       Cone   Friction     Pore 2 HydroPress         qt Fric_ratio  SigmaVert       Qnet         Bq
   No        m         s        MPa        MPa        MPa        MPa        MPa          %        kPa        MPa          -
    1    0.000   2145.50     0.0000                           0.0000     0.0000                0.0000     0.0000           
    2    0.020   2146.56     0.0019                0.0003     0.0002     0.0020                0.3200     0.0017     0.0344
    3    0.040   2147.59     0.0040                0.0006     0.0004     0.0041                0.6400     0.0035    -0.0156
    4    0.060   2149.11     0.0051     0.0002     0.0003     0.0006     0.0053     4.5382     0.9600     0.0044     0.0190
    5    0.080   2158.80     0.0074     0.0009    -0.0008     0.0008     0.0073    17.8663     1.2800     0.0060    -0.1305
    6    0.100   2168.48     0.0098     0.0010    -0.0019     0.0010     0.0092    20.5824     1.6000     0.0076    -0.2799
    7    0.120   2176.26     0.0124     0.0010    -0.0027     0.0012     0.0114     8.1231     1.9200     0.0094    -0.3914
    8    0.140   2177.31     0.0169     0.0010    -0.0019     0.0014     0.0159     5.9286     2.2400     0.0137    -0.2923
    9    0.160   2178.33     0.0180     0.0012    -0.0001     0.0016     0.0177     6.8378     2.5600     0.0152    -0.1562
   10    0.180   2179.30     0.0204     0.0011     0.0018     0.0018     0.0209     5.0271     2.8800     0.0181    -0.0291
   11    0.200   2180.31     0.0214     0.0011     0.0008     0.0020     0.0222     5.2504     3.2000     0.0190    -0.0091
   12    0.220   2181.30     0.0274     0.0010    -0.0018     0.0022     0.0269     3.7445     3.5200     0.0233    -0.1458
   13    0.240   2182.34     0.0247     0.0009    -0.0020     0.0024     0.0237     3.4789     3.8400     0.0199    -0.2414
   14    0.260   2183.32     0.0183     0.0010     0.0009     0.0026     0.0184     5.1807     4.1600     0.0142    -0.1717
   15    0.280   2184.29     0.0188     0.0008     0.0025     0.0028     0.0196     4.2110     4.4800     0.0151    -0.0622
   16    0.300   2185.29     0.0227     0.0005     0.0032     0.0030     0.0240     2.0925     4.8000     0.0192     0.0037
   17    0.320   2186.30     0.0264     0.0006     0.0035     0.0032     0.0280     2.1171     5.1200     0.0229     0.0249
   18    0.340   2187.28     0.0289     0.0006     0.0007     0.0034     0.0295     2.1856     5.4400     0.0241    -0.0832
   19    0.360   2188.30     0.0218     0.0008     0.0023     0.0036     0.0225     3.2518     5.7600     0.0167    -0.1163
   20    0.380   2189.28     0.0167     0.0006     0.0040     0.0038     0.0183     3.3713     6.0800     0.0122    -0.0130
   21    0.400   2190.28     0.0139     0.0006     0.0054     0.0040     0.0160     4.5172     6.4000     0.0096     0.0963
   22    0.420   2191.27     0.0146     0.0012     0.0065     0.0042     0.0171     8.1612     6.7200     0.0104     0.1845
   23    0.440   2192.24     0.0143     0.0011     0.0077     0.0044     0.0174     7.6588     7.0400     0.0104     0.2887
   24    0.460   2193.24     0.0202     0.0011     0.0072     0.0046     0.0235     5.5817     7.3600     0.0162     0.2159
   25    0.480   2194.27     0.0271     0.0002     0.0064     0.0048     0.0292     0.8305     7.6800     0.0215     0.0053
   26    0.500   2195.25     0.0317     0.0004     0.0069     0.0050     0.0350     1.3618     8.0000     0.0270     0.1118
   27    0.520   2196.28     0.0584     0.0016     0.0005     0.0052     0.0599     3.2307     8.3200     0.0516    -0.0263
   28    0.540   2197.27     0.1158     0.0017    -0.0050     0.0054     0.1137     1.4815     8.6400     0.1050    -0.1005
   29    0.560   2198.29     0.1462     0.0017    -0.0118     0.0056     0.1428     1.1518     8.9600     0.1339    -0.1015
   30    0.580   2199.29     0.1426     0.0023    -0.0192     0.0058     0.1350     1.5835     9.2800     0.1257    -0.1916
   31    0.600   2200.30     0.0992     0.0028    -0.0136     0.0060     0.0922     2.6816     9.6000     0.0826    -0.2916
   32    0.620   2201.32     0.0704     0.0025    -0.0044     0.0062     0.0683     3.8283     9.9200     0.0583    -0.2133
   33    0.640   2202.31     0.0299     0.0024    -0.0074     0.0064     0.0266     8.3162    10.2400     0.0164    -0.8737
   34    0.660   2203.32     0.0359     0.0030    -0.0051     0.0066     0.0331     8.3600    10.5600     0.0225    -0.5996
   35    0.680   2204.31     0.0263     0.0018    -0.0022     0.0068     0.0252     6.8153    10.8800     0.0143    -0.6638
   36    0.700   2205.32     0.0227     0.0018    -0.0008     0.0070     0.0219     7.8340    11.2000     0.0107    -0.8210
   37    0.720   2206.32     0.0221     0.0022     0.0019     0.0072     0.0226     9.5457    11.5200     0.0111    -0.5531
   38    0.740   2207.32     0.0253     0.0025     0.0038     0.0074     0.0268     9.5354    11.8400     0.0149    -0.2605
   39    0.760   2208.32     0.0298     0.0021     0.0085     0.0076     0.0321     8.3268    12.1600     0.0200    -0.1452
   40    0.780   2209.33     0.1040     0.0022     0.0123     0.0078     0.1090     2.2228    12.4800     0.0965     0.0429
   41    0.800   2210.28     0.1450     0.0033     0.0042     0.0080     0.1498     2.4414    12.8000     0.1370     0.0271
   42    0.820   2211.25     0.1634     0.0042     0.0017     0.0082     0.1615     2.5832    13.1200     0.1483    -0.0874
   43    0.840   2212.27     0.1798     0.0048    -0.0121     0.0084     0.1826     2.8645    13.4400     0.1692    -0.0061
   44    0.860   2213.26     0.1881     0.0045    -0.0656     0.0086     0.1664     2.1928    13.7600     0.1527    -0.4184
   45    0.880   2214.24     0.0923     0.0042    -0.0606     0.0088     0.0636     3.7842    14.0800     0.0495    -3.8445
   46    0.900   2215.23     0.0747     0.0029    -0.0409     0.0090     0.0535     5.8089    14.4000     0.0391    -8.2551
   47    0.920   2216.24     0.1276     0.0032    -0.0284     0.0092     0.1161     2.5418    14.7200     0.1014    -0.3628
   48    0.940   2217.20     0.1265     0.0030    -0.0201     0.0094     0.1177     2.3188    15.0400     0.1026    -0.2991
   49    0.960   2218.19     0.1214     0.0034    -0.0322     0.0096     0.1092     2.9324    15.3600     0.0939    -0.4106
   50    0.980   2219.18     0.0444     0.0028    -0.0238     0.0098     0.0353     5.5502    15.6800     0.0197    -2.4469
   51    1.000   2220.22     0.0337     0.0024    -0.0167     0.0100     0.0259     7.0048    16.0000     0.0099    -2.9052
   52    1.020   2221.23     0.0336     0.0013    -0.0122     0.0102     0.0278     3.9690    16.3200     0.0115    -2.0792
   53    1.040   2222.27     0.0342     0.0014    -0.0076     0.0104     0.0303     4.2459    16.6400     0.0137    -1.4438
   54    1.060   2223.27     0.0366     0.0016    -0.0042     0.0106     0.0343     4.2205    16.9600     0.0173    -0.9271
   55    1.080   2224.26     0.0390     0.0012    -0.0012     0.0108     0.0382     3.2120    17.2800     0.0209    -0.6313
   56    1.100   2225.28     0.0399     0.0015     0.0005     0.0110     0.0399     3.6391    17.6000     0.0223    -0.5004
   57    1.120   2226.32     0.0410     0.0017     0.0014     0.0112     0.0415     4.1313    17.9200     0.0235    -0.4269
   58    1.140   2227.31     0.0385     0.0023     0.0017     0.0114     0.0391     5.9120    18.2400     0.0209    -0.4743
   59    1.160   2228.33     0.0371     0.0025     0.0026     0.0116     0.0380     6.7220    18.5600     0.0194    -0.4878
   60    1.180   2229.34     0.0394     0.0025     0.0051     0.0118     0.0412     6.4840    18.8800     0.0223    -0.3409
   61    1.200   2230.32     0.0397     0.0024     0.0079     0.0120     0.0425     6.0832    19.2000     0.0233    -0.2268
   62    1.220   2231.29     0.0501     0.0023     0.0135     0.0122     0.0546     4.6090    19.5200     0.0350    -0.0487
   63    1.240   2232.32     0.1009     0.0026     0.0294     0.0124     0.1121     3.5358    19.8400     0.0922     0.1496
   64    1.260   2233.32     0.1650     0.0024     0.0218     0.0126     0.1748     1.5291    20.1600     0.1546     0.0703
   65    1.280   2234.33     0.1856     0.0033     0.0200     0.0128     0.1945     2.0486    20.4800     0.1740     0.0470
   66    1.300   2235.33     0.1569     0.0036     0.0071     0.0130     0.1619     2.4689    20.8000     0.1411    -0.0099
   67    1.320   2236.32     0.1316     0.0040     0.0092     0.0132     0.1345     3.0241    21.1200     0.1134    -0.0546
   68    1.340   2237.26     0.1080     0.0037     0.0207     0.0134     0.1150     3.0969    21.4400     0.0935     0.0385
   69    1.360   2238.24     0.0831     0.0038     0.0188     0.0136     0.0917     3.8825    21.7600     0.0699     0.0992
   70    1.380   2246.63     0.0654     0.0041     0.0221     0.0138     0.0738     6.6524    22.0800     0.0517     0.1181
   71    1.400   2279.92     0.0934     0.0038     0.0279     0.0140     0.1043     6.5054    22.4000     0.0819     0.1361
   72    1.420   2313.20     0.1215     0.0032     0.0304     0.0142     0.1348     3.8795    22.7200     0.1121     0.1540
   73    1.440   2317.92     0.1349     0.0026     0.0209     0.0144     0.1448     1.9686    23.0400     0.1218     0.0759
   74    1.460   2318.92     0.1272     0.0024     0.0208     0.0146     0.1358     1.8943    23.3600     0.1124     0.0530
   75    1.480   2319.94     0.1043     0.0021     0.0212     0.0148     0.1134     1.9958    23.6800     0.0898     0.0790
   76    1.500   2320.96     0.0839     0.0021     0.0241     0.0150     0.0933     2.4603    24.0000     0.0693     0.1092
   77    1.520   2321.93     0.0769     0.0025     0.0289     0.0152     0.0884     3.1868    24.3200     0.0641     0.1916
   78    1.540   2322.95     0.0777     0.0022     0.0268     0.0154     0.0897     2.8467    24.6400     0.0650     0.2015
   79    1.560   2323.94     0.0712     0.0024     0.0252     0.0156     0.0815     3.3266    24.9600     0.0565     0.1589
   80    1.580   2324.96     0.0672     0.0026     0.0295     0.0158     0.0791     3.8845    25.2800     0.0538     0.2311
   81    1.600   2325.97     0.0680     0.0027     0.0325     0.0160     0.0812     4.0489    25.6000     0.0556     0.2787
   82    1.620   2326.99     0.0641     0.0025     0.0354     0.0162     0.0787     3.8715    25.9200     0.0527     0.3506
   83    1.640   2327.95     0.0680     0.0025     0.0370     0.0164     0.0833     3.7766    26.2400     0.0570     0.3508
   84    1.660   2328.97     0.0648     0.0028     0.0368     0.0166     0.0801     4.3081    26.5600     0.0535     0.3713
   85    1.680   2329.98     0.0642     0.0025     0.0385     0.0168     0.0800     3.7523    26.8800     0.0532     0.3949
   86    1.700   2330.96     0.0650     0.0022     0.0401     0.0170     0.0817     3.4546    27.2000     0.0545     0.4157
   87    1.720   2331.94     0.0651     0.0022     0.0419     0.0172     0.0824     3.3893    27.5200     0.0549     0.4350
   88    1.740   2332.94     0.0675     0.0019     0.0443     0.0174     0.0857     2.8456    27.8400     0.0579     0.4480
   89    1.760   2333.97     0.0678     0.0019     0.0465     0.0176     0.0870     2.8579    28.1600     0.0589     0.4798
   90    1.780   2334.94     0.0691     0.0021     0.0482     0.0178     0.0891     3.0754    28.4800     0.0606     0.4927
   91    1.800   2335.93     0.0725     0.0023     0.0488     0.0180     0.0930     3.1164    28.8000     0.0642     0.4786
   92    1.820   2336.94     0.0711     0.0026     0.0490     0.0182     0.0917     3.6927    29.1200     0.0625     0.4904
   93    1.840   2337.93     0.0716     0.0027     0.0505     0.0184     0.0925     3.7696    29.4400     0.0631     0.4975
   94    1.860   2338.90     0.0749     0.0029     0.0527     0.0186     0.0967     3.9003    29.7600     0.0669     0.4982
   95    1.880   2339.92     0.0800     0.0031     0.0551     0.0188     0.1029     3.9283    30.0800     0.0728     0.4897
   96    1.900   2340.93     0.0840     0.0031     0.0552     0.0190     0.1072     3.6781    30.4000     0.0768     0.4723
   97    1.920   2341.91     0.0833     0.0033     0.0552     0.0192     0.1065     4.0291    30.7200     0.0757     0.4758
   98    1.940   2342.90     0.0836     0.0031     0.0556     0.0194     0.1069     3.6839    31.0400     0.0759     0.4748
   99    1.960   2343.90     0.0791     0.0035     0.0568     0.0196     0.1028     4.4008    31.3600     0.0714     0.5136
  100    1.980   2344.90     0.0801     0.0033     0.0586     0.0198     0.1044     4.1133    31.6800     0.0728     0.5248
  101    2.000   2345.90     0.0849     0.0033     0.0604     0.0200     0.1099     3.9151    32.0000     0.0779     0.5077
  102    2.020   2346.93     0.0834     0.0034     0.0639     0.0202     0.1098     4.2363    32.3200     0.0775     0.5493
  103    2.040   2347.95     0.0885     0.0036     0.0671     0.0204     0.1163     4.0891    32.6400     0.0837     0.5461
  104    2.060   2348.91     0.0920     0.0039     0.0698     0.0206     0.1212     4.1969    32.9600     0.0882     0.5540
  105    2.080   2349.96     0.0939     0.0037     0.0640     0.0208     0.1221     3.9345    33.2800     0.0888     0.5212
  106    2.100   2350.99     0.0938     0.0035     0.0609     0.0210     0.1197     3.7442    33.6000     0.0861     0.4701
  107    2.120   2352.02     0.0920     0.0036     0.0613     0.0212     0.1175     3.8437    33.9200     0.0836     0.4715
  108    2.140   2352.98     0.0941     0.0039     0.0624     0.0214     0.1199     4.1381    34.2400     0.0857     0.4670
  109    2.160   2353.98     0.0927     0.0041     0.0654     0.0216     0.1197     4.3768    34.5600     0.0851     0.5023
  110    2.180   2354.98     0.0962     0.0040     0.0680     0.0218     0.1244     4.2077    34.8800     0.0895     0.5078
  111    2.200   2356.00     0.0959     0.0040     0.0670     0.0220     0.1244     4.1620    35.2000     0.0892     0.5121
  112    2.220   2357.02     0.1001     0.0041     0.0661     0.0222     0.1278     4.1179    35.5200     0.0923     0.4739
  113    2.240   2358.04     0.0976     0.0043     0.0666     0.0224     0.1256     4.3650    35.8400     0.0897     0.4915
  114    2.260   2359.01     0.0985     0.0043     0.0656     0.0226     0.1260     4.3930    36.1600     0.0899     0.4793
  115    2.280   2359.96     0.0981     0.0045     0.0653     0.0228     0.1255     4.6188    36.4800     0.0890     0.4780
  116    2.300   2360.98     0.0990     0.0044     0.0658     0.0230     0.1265     4.4277    36.8000     0.0897     0.4738
  117    2.320   2362.00     0.1006     0.0045     0.0676     0.0232     0.1288     4.5535    37.1200     0.0916     0.4785
  118    2.340   2362.97     0.0986     0.0045     0.0686     0.0234     0.1273     4.4937    37.4400     0.0898     0.4992
  119    2.360   2363.96     0.1009     0.0047     0.0689     0.0236     0.1300     4.6271    37.7600     0.0922     0.4955
  120    2.380   2364.94     0.1009     0.0046     0.0667     0.0238     0.1291     4.5984    38.0800     0.0910     0.4754
  121    2.400   2365.96     0.0997     0.0041     0.0680     0.0240     0.1279     4.1442    38.4000     0.0895     0.4800
  122    2.420   2366.94     0.1005     0.0042     0.0683     0.0242     0.1294     4.2195    38.7200     0.0907     0.4913
  123    2.440   2367.96     0.1009     0.0042     0.0689     0.0244     0.1296     4.1688    39.0400     0.0905     0.4833
  124    2.460   2368.95     0.0987     0.0042     0.0707     0.0246     0.1282     4.2232    39.3600     0.0888     0.5138
  125    2.480   2369.95     0.0989     0.0040     0.0706     0.0248     0.1286     4.0768    39.6800     0.0889     0.5166
  126    2.500   2370.93     0.0996     0.0042     0.0692     0.0250     0.1290     4.2330    40.0000     0.0890     0.5046
  127    2.520   2371.94     0.0941     0.0043     0.0653     0.0252     0.1222     4.5319    40.3200     0.0818     0.5072
  128    2.540   2372.93     0.0914     0.0043     0.0614     0.0254     0.1176     4.6975    40.6400     0.0770     0.4831
  129    2.560   2373.95     0.0890     0.0046     0.0611     0.0256     0.1144     5.1370    40.9600     0.0734     0.4744
  130    2.580   2374.95     0.0873     0.0045     0.0646     0.0258     0.1138     5.1366    41.2800     0.0725     0.5148
  131    2.600   2375.99     0.0899     0.0043     0.0701     0.0260     0.1186     4.7120    41.6000     0.0770     0.5484
  132    2.620   2376.96     0.0921     0.0043     0.0740     0.0262     0.1227     4.6251    41.9200     0.0808     0.5784
  133    2.640   2377.99     0.0973     0.0042     0.0763     0.0264     0.1291     4.3645    42.2400     0.0869     0.5669
  134    2.660   2378.98     0.0958     0.0042     0.0773     0.0266     0.1279     4.3892    42.5600     0.0854     0.5842
