

 Program UNIPLOT                         version 05.36.02
 _______________
 (c) Fugro Netherlands Marine, Nootdorp, The Netherlands


 ASCII representation of data plotted on a graph.

 This ASCII file presents data interpolated to values per fixed depth interval.
 The data are corrected for the depth-offset differences between the various 
 transducers in the penetrometer.

 The records at the start of penetration may include no values or anomalous
 values where a depth offset implies incomplete penetration of a particular
 sensor into the ground.

 The records at the end of penetration may include no values for data channels
 where the transducer did not reach this depth.

 The reference level for test values is (1) the ground surface for onshore tests and (2) the seafloor for nearshore and offshore tests.

 UNICAS data file          : CPT-2008.000                            
 Output using command file : PlotASCII.cmd

 ASCII file created at : date          :12-Jul-2022
                         time          :16:16:29
 Project number                        :20024805                                                                                            
 Date of testing                       :10-Jul-2022                                                                                         
 Location                              :Hong Kong Offshore Wind Farm Project                                                                
 Test name                             :CPT-2008
 Penetrometer                          :F7.5CKE2HAW2/B/3285
 Serial no                             :1701-3285

 Table description:
 Column ID                             :Parameter name
 ___________________________________________________________________________________
 Rec                                   :Record ID, Record ID [-]
 Depth                                 :Depth, Depth [m]
 Time                                  :Time, Time [s]
 Cone                                  :Cone Resistance, Cone Resistance [MPa]
 Friction                              :Sleeve Friction, Sleeve Friction [MPa]
 Pore 2                                :Porewater Pressure, Porewater Pressure at Shoulder [MPa]
 HydroPress                            :Hydrostatic Pressure, Hydrostatic Pressure [MPa]
 qt                                    :Total Cone Resistance, Total Cone Resistance [MPa]
 Fric_ratio                            :Friction Ratio, Friction Ratio [%]
 SigmaVert                             :Vertical stress, Vertical stress [kPa] as specified in ground model
 Qnet                                  :Net Cone Resistance, Net Cone Resistance [MPa], unit weight as specified in ground model
 Bq                                    :Porewater Pressure Ratio, Porewater Pressure Ratio [-], unit weight as specified in ground model


 Data table:
  Rec    Depth      Time       Cone   Friction     Pore 2 HydroPress         qt Fric_ratio  SigmaVert       Qnet         Bq
   No        m         s        MPa        MPa        MPa        MPa        MPa          %        kPa        MPa          -
    1    0.000   2091.91     0.0000                           0.0000     0.0000                0.0000     0.0000           
    2    0.020   2099.72     0.0017                0.0001     0.0002     0.0017                0.3200     0.0014    -0.2383
    3    0.040   2105.96     0.0068               -0.0020     0.0004     0.0058                0.6400     0.0052    -0.5397
    4    0.060   2106.90     0.0083     0.0005    -0.0023     0.0006     0.0074     6.6132     0.9600     0.0064    -0.4284
    5    0.080   2107.80     0.0112     0.0005    -0.0026     0.0008     0.0101     4.8864     1.2800     0.0088    -0.3911
    6    0.100   2108.69     0.0088     0.0005    -0.0010     0.0010     0.0080     6.0247     1.6000     0.0064    -0.4229
    7    0.120   2109.58     0.0065     0.0005     0.0009     0.0012     0.0066     7.7571     1.9200     0.0047    -0.1823
    8    0.140   2110.52     0.0093     0.0010    -0.0006     0.0014     0.0091    11.1333     2.2400     0.0068    -0.2712
    9    0.160   2111.43     0.0081     0.0007    -0.0001     0.0016     0.0078     7.5923     2.5600     0.0053    -0.4260
   10    0.180   2112.31     0.0100     0.0008     0.0006     0.0018     0.0103     7.7503     2.8800     0.0075    -0.1408
   11    0.200   2113.22     0.0127     0.0008    -0.0023     0.0020     0.0124     6.1588     3.2000     0.0092    -0.3193
   12    0.220   2114.13     0.0127     0.0010    -0.0001     0.0022     0.0118     7.9842     3.5200     0.0083    -0.5558
   13    0.240   2115.01     0.0128     0.0006     0.0041     0.0024     0.0138     4.4719     3.8400     0.0099     0.0159
   14    0.260   2115.94     0.0121     0.0007     0.0047     0.0026     0.0137     6.0497     4.1600     0.0095     0.1120
   15    0.280   2117.05     0.0120     0.0009     0.0053     0.0028     0.0138     7.8548     4.4800     0.0094     0.1499
   16    0.300   2118.17     0.0139     0.0009     0.0051     0.0030     0.0160     6.5095     4.8000     0.0112     0.1920
   17    0.320   2119.26     0.0151     0.0010     0.0053     0.0032     0.0173     6.6047     5.1200     0.0122     0.1673
   18    0.340   2120.25     0.0150     0.0010     0.0046     0.0034     0.0176     6.7152     5.4400     0.0121     0.2204
   19    0.360   2121.25     0.0201     0.0009     0.0046     0.0036     0.0219     4.7434     5.7600     0.0162     0.0358
   20    0.380   2122.23     0.0193     0.0008     0.0070     0.0038     0.0217     4.6370     6.0800     0.0156     0.1179
   21    0.400   2123.26     0.0249     0.0009     0.0101     0.0040     0.0289     3.5717     6.4000     0.0225     0.2396
   22    0.420   2124.29     0.0290     0.0008     0.0080     0.0042     0.0324     2.7297     6.7200     0.0257     0.1573
   23    0.440   2125.31     0.0321     0.0011     0.0069     0.0044     0.0355     3.6209     7.0400     0.0284     0.1285
   24    0.460   2126.30     0.0383     0.0016     0.0041     0.0046     0.0404     4.2109     7.3600     0.0331     0.0174
   25    0.480   2127.33     0.0396     0.0017     0.0033     0.0048     0.0408     4.3019     7.6800     0.0331    -0.0577
   26    0.500   2128.30     0.0419     0.0019     0.0039     0.0050     0.0436     4.4941     8.0000     0.0356    -0.0228
   27    0.520   2129.30     0.0423     0.0019     0.0015     0.0052     0.0434     4.2411     8.3200     0.0351    -0.0774
   28    0.540   2130.31     0.0393     0.0019     0.0000     0.0054     0.0393     4.6789     8.6400     0.0307    -0.1770
   29    0.560   2131.27     0.0355     0.0022     0.0017     0.0056     0.0359     6.0915     8.9600     0.0269    -0.1750
   30    0.580   2132.29     0.0345     0.0024     0.0032     0.0058     0.0356     6.9213     9.2800     0.0263    -0.1196
   31    0.600   2133.28     0.0288     0.0024     0.0069     0.0060     0.0311     6.9854     9.6000     0.0215    -0.0227
   32    0.620   2134.32     0.0297     0.0023     0.0085     0.0062     0.0328     7.1242     9.9200     0.0229     0.0591
   33    0.640   2135.30     0.0285     0.0023     0.0103     0.0064     0.0326     7.2699    10.2400     0.0223     0.1419
   34    0.660   2136.32     0.0317     0.0021     0.0129     0.0066     0.0369     6.0259    10.5600     0.0263     0.2209
   35    0.680   2137.33     0.0339     0.0021     0.0126     0.0068     0.0386     6.3888    10.8800     0.0277     0.1582
   36    0.700   2145.67     0.0347     0.0017     0.0130     0.0070     0.0403     4.8469    11.2000     0.0291     0.2141
   37    0.720   2162.75     0.0348     0.0018     0.0122     0.0072     0.0400     5.1441    11.5200     0.0285     0.1827
   38    0.740   2179.84     0.0348     0.0017     0.0113     0.0074     0.0397     4.8795    11.8400     0.0278     0.1513
   39    0.760   2187.03     0.0366     0.0016     0.0140     0.0076     0.0420     4.4525    12.1600     0.0298     0.1729
   40    0.780   2188.07     0.0359     0.0018     0.0153     0.0078     0.0422     5.1107    12.4800     0.0297     0.2367
   41    0.800   2189.07     0.0389     0.0019     0.0165     0.0080     0.0458     4.7817    12.8000     0.0330     0.2514
   42    0.820   2190.09     0.0372     0.0024     0.0153     0.0082     0.0439     6.4035    13.1200     0.0308     0.2496
   43    0.840   2191.09     0.0422     0.0019     0.0128     0.0084     0.0474     4.4885    13.4400     0.0339     0.1166
   44    0.860   2192.10     0.0417     0.0019     0.0144     0.0086     0.0476     4.7236    13.7600     0.0338     0.1558
   45    0.880   2193.11     0.0410     0.0020     0.0138     0.0088     0.0471     4.8261    14.0800     0.0330     0.1712
   46    0.900   2194.14     0.0438     0.0022     0.0128     0.0090     0.0491     4.9120    14.4000     0.0347     0.0997
   47    0.920   2195.12     0.0426     0.0021     0.0152     0.0092     0.0487     4.7206    14.7200     0.0340     0.1627
   48    0.940   2196.12     0.0435     0.0021     0.0144     0.0094     0.0496     4.9134    15.0400     0.0346     0.1465
   49    0.960   2197.09     0.0468     0.0019     0.0143     0.0096     0.0526     4.0485    15.3600     0.0373     0.1125
   50    0.980   2198.08     0.0445     0.0021     0.0174     0.0098     0.0511     4.7971    15.6800     0.0354     0.1654
   51    1.000   2199.13     0.0443     0.0022     0.0213     0.0100     0.0528     5.0160    16.0000     0.0368     0.2772
   52    1.020   2200.11     0.0441     0.0021     0.0234     0.0102     0.0536     4.7521    16.3200     0.0373     0.3343
   53    1.040   2201.11     0.0434     0.0019     0.0244     0.0104     0.0535     4.3556    16.6400     0.0369     0.3726
   54    1.060   2202.08     0.0437     0.0019     0.0246     0.0106     0.0541     4.3408    16.9600     0.0371     0.3804
   55    1.080   2203.05     0.0436     0.0017     0.0243     0.0108     0.0540     3.9519    17.2800     0.0367     0.3828
   56    1.100   2204.06     0.0431     0.0017     0.0240     0.0110     0.0533     3.8622    17.6000     0.0357     0.3695
   57    1.120   2205.10     0.0424     0.0017     0.0242     0.0112     0.0526     3.9899    17.9200     0.0346     0.3746
   58    1.140   2206.11     0.0445     0.0018     0.0250     0.0114     0.0549     3.9506    18.2400     0.0366     0.3626
   59    1.160   2207.13     0.0425     0.0020     0.0257     0.0116     0.0531     4.6800    18.5600     0.0345     0.3946
   60    1.180   2208.13     0.0443     0.0020     0.0259     0.0118     0.0552     4.5936    18.8800     0.0363     0.3922
   61    1.200   2209.13     0.0468     0.0017     0.0260     0.0120     0.0578     3.6293    19.2000     0.0386     0.3667
   62    1.220   2210.15     0.0460     0.0017     0.0263     0.0122     0.0571     3.6274    19.5200     0.0376     0.3753
   63    1.240   2211.16     0.0457     0.0018     0.0251     0.0124     0.0564     3.8678    19.8400     0.0366     0.3626
   64    1.260   2212.18     0.0441     0.0018     0.0244     0.0126     0.0545     4.1376    20.1600     0.0343     0.3544
   65    1.280   2213.19     0.0437     0.0018     0.0237     0.0128     0.0536     3.9179    20.4800     0.0332     0.3289
   66    1.300   2214.19     0.0436     0.0019     0.0248     0.0130     0.0539     4.3893    20.8000     0.0331     0.3489
   67    1.320   2215.23     0.0448     0.0020     0.0245     0.0132     0.0551     4.5475    21.1200     0.0340     0.3328
   68    1.340   2216.21     0.0433     0.0021     0.0251     0.0134     0.0537     4.8321    21.4400     0.0322     0.3528
   69    1.360   2217.22     0.0445     0.0021     0.0274     0.0136     0.0556     4.8494    21.7600     0.0338     0.3802
   70    1.380   2218.25     0.0553     0.0022     0.0296     0.0138     0.0675     4.1307    22.0800     0.0455     0.3373
   71    1.400   2219.25     0.0555     0.0020     0.0324     0.0140     0.0687     3.5751    22.4000     0.0463     0.3773
   72    1.420   2220.26     0.0551     0.0021     0.0322     0.0142     0.0685     3.7973    22.7200     0.0458     0.3864
   73    1.440   2221.23     0.0560     0.0023     0.0311     0.0144     0.0692     4.1523    23.0400     0.0462     0.3710
   74    1.460   2222.22     0.0587     0.0022     0.0318     0.0146     0.0719     3.7140    23.3600     0.0486     0.3465
   75    1.480   2223.24     0.0542     0.0021     0.0333     0.0148     0.0680     3.9241    23.6800     0.0443     0.4059
   76    1.500   2224.25     0.0569     0.0024     0.0347     0.0150     0.0712     4.1675    24.0000     0.0472     0.4055
   77    1.520   2225.25     0.0547     0.0020     0.0363     0.0152     0.0697     3.5603    24.3200     0.0454     0.4518
   78    1.540   2226.22     0.0538     0.0021     0.0377     0.0154     0.0696     3.7832    24.6400     0.0449     0.4931
   79    1.560   2227.22     0.0574     0.0022     0.0379     0.0156     0.0732     3.8899    24.9600     0.0482     0.4541
   80    1.580   2228.20     0.0592     0.0021     0.0371     0.0158     0.0750     3.5092    25.2800     0.0498     0.4410
   81    1.600   2229.16     0.0552     0.0022     0.0364     0.0160     0.0706     3.8545    25.6000     0.0450     0.4600
   82    1.620   2230.17     0.0551     0.0022     0.0351     0.0162     0.0700     4.1029    25.9200     0.0441     0.4397
   83    1.640   2231.17     0.0581     0.0023     0.0335     0.0164     0.0723     4.1232    26.2400     0.0461     0.3813
   84    1.660   2232.17     0.0631     0.0022     0.0378     0.0166     0.0782     3.4408    26.5600     0.0517     0.3747
   85    1.680   2233.17     0.0701     0.0025     0.0406     0.0168     0.0867     3.6083    26.8800     0.0599     0.3817
   86    1.700   2234.19     0.0718     0.0024     0.0445     0.0170     0.0903     3.3715    27.2000     0.0631     0.4277
   87    1.720   2235.13     0.0751     0.0025     0.0413     0.0172     0.0928     3.3311    27.5200     0.0652     0.3811
   88    1.740   2236.14     0.0740     0.0026     0.0445     0.0174     0.0921     3.4887    27.8400     0.0642     0.4009
   89    1.760   2237.13     0.0750     0.0025     0.0459     0.0176     0.0942     3.4221    28.1600     0.0660     0.4268
   90    1.780   2238.16     0.0750     0.0026     0.0473     0.0178     0.0945     3.4290    28.4800     0.0660     0.4335
   91    1.800   2239.17     0.0763     0.0026     0.0498     0.0180     0.0968     3.3885    28.8000     0.0680     0.4508
   92    1.820   2240.20     0.0761     0.0027     0.0516     0.0182     0.0977     3.5728    29.1200     0.0686     0.4842
   93    1.840   2241.20     0.0752     0.0029     0.0525     0.0184     0.0972     3.8733    29.4400     0.0677     0.5005
   94    1.860   2242.16     0.0770     0.0028     0.0521     0.0186     0.0989     3.6382    29.7600     0.0691     0.4834
   95    1.880   2243.18     0.0783     0.0026     0.0530     0.0188     0.1007     3.3532    30.0800     0.0706     0.4882
   96    1.900   2244.18     0.0783     0.0027     0.0508     0.0190     0.1000     3.4880    30.4000     0.0696     0.4684
   97    1.920   2245.18     0.0763     0.0026     0.0490     0.0192     0.0969     3.3146    30.7200     0.0662     0.4531
   98    1.940   2246.20     0.0713     0.0026     0.0504     0.0194     0.0922     3.5936    31.0400     0.0612     0.4971
   99    1.960   2247.20     0.0682     0.0028     0.0511     0.0196     0.0897     4.0700    31.3600     0.0584     0.5410
  100    1.980   2248.17     0.0684     0.0026     0.0522     0.0198     0.0901     3.7586    31.6800     0.0584     0.5438
  101    2.000   2249.17     0.0681     0.0027     0.0535     0.0200     0.0905     3.8870    32.0000     0.0585     0.5687
  102    2.020   2250.20     0.0670     0.0026     0.0536     0.0202     0.0896     3.9566    32.3200     0.0573     0.5874
  103    2.040   2251.17     0.0680     0.0026     0.0548     0.0204     0.0906     3.8304    32.6400     0.0580     0.5758
  104    2.060   2252.16     0.0675     0.0027     0.0557     0.0206     0.0909     4.0120    32.9600     0.0580     0.6077
  105    2.080   2253.11     0.0694     0.0027     0.0560     0.0208     0.0927     3.8432    33.2800     0.0594     0.5859
  106    2.100   2254.14     0.0706     0.0028     0.0580     0.0210     0.0949     3.9817    33.6000     0.0613     0.6027
  107    2.120   2255.10     0.0715     0.0027     0.0553     0.0212     0.0947     3.8216    33.9200     0.0608     0.5601
  108    2.140   2256.15     0.0712     0.0030     0.0600     0.0214     0.0957     4.1915    34.2400     0.0614     0.6012
  109    2.160   2257.14     0.0714     0.0029     0.0630     0.0216     0.0975     4.0664    34.5600     0.0629     0.6451
  110    2.180   2258.13     0.0720     0.0028     0.0647     0.0218     0.0991     3.9434    34.8800     0.0642     0.6636
  111    2.200   2259.13     0.0725     0.0025     0.0641     0.0220     0.0993     3.5066    35.2000     0.0641     0.6502
  112    2.220   2260.15     0.0722     0.0027     0.0649     0.0222     0.0997     3.7403    35.5200     0.0641     0.6723
  113    2.240   2261.10     0.0714     0.0028     0.0652     0.0224     0.0987     3.8871    35.8400     0.0628     0.6765
  114    2.260   2262.09     0.0723     0.0025     0.0662     0.0226     0.1003     3.5086    36.1600     0.0641     0.6851
  115    2.280   2263.12     0.0777     0.0026     0.0640     0.0228     0.1049     3.3329    36.4800     0.0684     0.6156
  116    2.300   2264.15     0.0840     0.0029     0.0643     0.0230     0.1109     3.5293    36.8000     0.0741     0.5538
  117    2.320   2265.16     0.0886     0.0033     0.0637     0.0232     0.1153     3.6821    37.1200     0.0782     0.5156
  118    2.340   2266.12     0.0937     0.0033     0.0631     0.0234     0.1200     3.5600    37.4400     0.0826     0.4756
  119    2.360   2267.16     0.0966     0.0037     0.0592     0.0236     0.1227     3.8180    37.7600     0.0850     0.4554
  120    2.380   2268.14     0.1000     0.0038     0.0586     0.0238     0.1242     3.8352    38.0800     0.0862     0.3939
  121    2.400   2269.13     0.1003     0.0038     0.0604     0.0240     0.1253     3.8023    38.4000     0.0869     0.4085
  122    2.420   2270.13     0.0994     0.0044     0.0638     0.0242     0.1262     4.4374    38.7200     0.0874     0.4509
  123    2.440   2271.14     0.1043     0.0046     0.0579     0.0244     0.1293     4.4115    39.0400     0.0903     0.3906
  124    2.460   2272.16     0.1044     0.0043     0.0600     0.0246     0.1291     4.1103    39.3600     0.0898     0.3826
  125    2.480   2273.14     0.1059     0.0044     0.0594     0.0248     0.1309     4.1909    39.6800     0.0912     0.3819
  126    2.500   2274.15     0.1077     0.0045     0.0617     0.0250     0.1332     4.1569    40.0000     0.0932     0.3848
  127    2.520   2275.16     0.1101     0.0048     0.0621     0.0252     0.1366     4.4513    40.3200     0.0963     0.3936
  128    2.540   2276.18     0.1081     0.0050     0.0629     0.0254     0.1341     4.6217    40.6400     0.0934     0.3901
  129    2.560   2277.16     0.1094     0.0052     0.0619     0.0256     0.1353     4.7937    40.9600     0.0944     0.3833
  130    2.580   2278.16     0.1102     0.0056     0.0601     0.0258     0.1356     5.0193    41.2800     0.0944     0.3681
  131    2.600   2279.17     0.1120     0.0054     0.0610     0.0260     0.1374     4.8498    41.6000     0.0958     0.3606
  132    2.620   2285.61     0.1104     0.0053     0.0589     0.0262     0.1356     4.7816    41.9200     0.0937     0.3621
  133    2.640   2306.63     0.1092     0.0056     0.0551     0.0264     0.1329     5.0460    42.2400     0.0907     0.3289
  134    2.660   2327.64     0.1081     0.0051     0.0516     0.0266     0.1302     4.6383    42.5600     0.0877     0.2956
